! Start: 10°
! Ende: 120°
! Schritt: 0,01°
! Messzeit: 5s
#2Theta  I (pcs)
10.0000   114
10.0100   119
10.0200   111
10.0300   108
10.0400   110
10.0500   121
10.0600   103
10.0700   119
10.0800   114
10.0900   118
10.1000   113
10.1100   112
10.1200   85
10.1300   102
10.1400   122
10.1500   124
10.1600   121
10.1700   94
10.1800   102
10.1900   105
10.2000   132
10.2100   128
10.2200   91
10.2300   112
10.2400   87
10.2500   106
10.2600   111
10.2700   110
10.2800   103
10.2900   108
10.3000   107
10.3100   106
10.3200   102
10.3300   122
10.3400   121
10.3500   97
10.3600   119
10.3700   93
10.3800   101
10.3900   108
10.4000   106
10.4100   86
10.4200   89
10.4300   98
10.4400   111
10.4500   109
10.4600   113
10.4700   111
10.4800   97
10.4900   109
10.5000   117
10.5100   88
10.5200   103
10.5300   120
10.5400   108
10.5500   115
10.5600   109
10.5700   82
10.5800   95
10.5900   96
10.6000   101
10.6100   113
10.6200   83
10.6300   115
10.6400   114
10.6500   100
10.6600   103
10.6700   82
10.6800   106
10.6900   86
10.7000   104
10.7100   102
10.7200   105
10.7300   94
10.7400   100
10.7500   120
10.7600   109
10.7700   120
10.7800   90
10.7900   91
10.8000   90
10.8100   98
10.8200   116
10.8300   96
10.8400   104
10.8500   109
10.8600   76
10.8700   96
10.8800   98
10.8900   100
10.9000   102
10.9100   106
10.9200   123
10.9300   99
10.9400   93
10.9500   99
10.9600   101
10.9700   97
10.9800   102
10.9900   108
11.0000   105
11.0100   106
11.0200   103
11.0300   93
11.0400   98
11.0500   92
11.0600   92
11.0700   109
11.0800   100
11.0900   90
11.1000   100
11.1100   103
11.1200   79
11.1300   97
11.1400   88
11.1500   87
11.1600   86
11.1700   93
11.1800   85
11.1900   93
11.2000   89
11.2100   89
11.2200   95
11.2300   94
11.2400   93
11.2500   89
11.2600   90
11.2700   104
11.2800   98
11.2900   106
11.3000   107
11.3100   90
11.3200   128
11.3300   103
11.3400   105
11.3500   90
11.3600   88
11.3700   100
11.3800   108
11.3900   87
11.4000   117
11.4100   107
11.4200   97
11.4300   91
11.4400   100
11.4500   83
11.4600   101
11.4700   81
11.4800   91
11.4900   87
11.5000   91
11.5100   103
11.5200   84
11.5300   103
11.5400   86
11.5500   80
11.5600   95
11.5700   92
11.5800   93
11.5900   99
11.6000   81
11.6100   103
11.6200   101
11.6300   77
11.6400   75
11.6500   110
11.6600   92
11.6700   89
11.6800   97
11.6900   103
11.7000   105
11.7100   72
11.7200   85
11.7300   100
11.7400   83
11.7500   100
11.7600   96
11.7700   89
11.7800   92
11.7900   84
11.8000   95
11.8100   87
11.8200   102
11.8300   97
11.8400   92
11.8500   83
11.8600   88
11.8700   92
11.8800   89
11.8900   104
11.9000   82
11.9100   76
11.9200   90
11.9300   77
11.9400   87
11.9500   102
11.9600   85
11.9700   96
11.9800   96
11.9900   94
12.0000   71
12.0100   73
12.0200   97
12.0300   100
12.0400   88
12.0500   99
12.0600   80
12.0700   101
12.0800   85
12.0900   82
12.1000   90
12.1100   76
12.1200   79
12.1300   78
12.1400   85
12.1500   90
12.1600   93
12.1700   88
12.1800   88
12.1900   88
12.2000   88
12.2100   65
12.2200   75
12.2300   75
12.2400   93
12.2500   107
12.2600   85
12.2700   70
12.2800   83
12.2900   68
12.3000   101
12.3100   75
12.3200   79
12.3300   88
12.3400   104
12.3500   85
12.3600   85
12.3700   87
12.3800   69
12.3900   74
12.4000   86
12.4100   89
12.4200   80
12.4300   96
12.4400   76
12.4500   86
12.4600   65
12.4700   74
12.4800   76
12.4900   87
12.5000   86
12.5100   78
12.5200   88
12.5300   78
12.5400   88
12.5500   89
12.5600   91
12.5700   92
12.5800   77
12.5900   84
12.6000   81
12.6100   74
12.6200   88
12.6300   77
12.6400   79
12.6500   85
12.6600   85
12.6700   74
12.6800   80
12.6900   86
12.7000   88
12.7100   70
12.7200   92
12.7300   75
12.7400   74
12.7500   87
12.7600   92
12.7700   82
12.7800   106
12.7900   74
12.8000   82
12.8100   78
12.8200   64
12.8300   80
12.8400   83
12.8500   99
12.8600   81
12.8700   68
12.8800   87
12.8900   95
12.9000   54
12.9100   76
12.9200   72
12.9300   73
12.9400   95
12.9500   91
12.9600   51
12.9700   65
12.9800   89
12.9900   71
13.0000   77
13.0100   69
13.0200   86
13.0300   85
13.0400   69
13.0500   90
13.0600   76
13.0700   94
13.0800   80
13.0900   74
13.1000   90
13.1100   67
13.1200   65
13.1300   78
13.1400   68
13.1500   84
13.1600   61
13.1700   71
13.1800   60
13.1900   70
13.2000   71
13.2100   59
13.2200   66
13.2300   80
13.2400   76
13.2500   70
13.2600   68
13.2700   72
13.2800   68
13.2900   72
13.3000   70
13.3100   70
13.3200   58
13.3300   81
13.3400   79
13.3500   69
13.3600   69
13.3700   77
13.3800   84
13.3900   75
13.4000   84
13.4100   65
13.4200   69
13.4300   78
13.4400   70
13.4500   81
13.4600   92
13.4700   70
13.4800   72
13.4900   71
13.5000   64
13.5100   80
13.5200   60
13.5300   75
13.5400   78
13.5500   65
13.5600   71
13.5700   79
13.5800   57
13.5900   70
13.6000   77
13.6100   66
13.6200   67
13.6300   60
13.6400   71
13.6500   80
13.6600   83
13.6700   65
13.6800   67
13.6900   59
13.7000   65
13.7100   80
13.7200   76
13.7300   61
13.7400   80
13.7500   54
13.7600   78
13.7700   54
13.7800   76
13.7900   82
13.8000   74
13.8100   90
13.8200   66
13.8300   62
13.8400   72
13.8500   70
13.8600   75
13.8700   71
13.8800   89
13.8900   63
13.9000   86
13.9100   56
13.9200   84
13.9300   61
13.9400   61
13.9500   67
13.9600   64
13.9700   71
13.9800   69
13.9900   77
14.0000   77
14.0100   90
14.0200   72
14.0300   69
14.0400   61
14.0500   75
14.0600   82
14.0700   78
14.0800   59
14.0900   70
14.1000   61
14.1100   82
14.1200   62
14.1300   71
14.1400   97
14.1500   70
14.1600   78
14.1700   82
14.1800   69
14.1900   64
14.2000   72
14.2100   90
14.2200   80
14.2300   74
14.2400   64
14.2500   84
14.2600   71
14.2700   79
14.2800   82
14.2900   84
14.3000   59
14.3100   68
14.3200   76
14.3300   78
14.3400   86
14.3500   84
14.3600   84
14.3700   65
14.3800   83
14.3900   74
14.4000   73
14.4100   79
14.4200   79
14.4300   80
14.4400   90
14.4500   100
14.4600   76
14.4700   86
14.4800   67
14.4900   65
14.5000   89
14.5100   88
14.5200   82
14.5300   84
14.5400   99
14.5500   105
14.5600   87
14.5700   85
14.5800   111
14.5900   100
14.6000   74
14.6100   90
14.6200   93
14.6300   100
14.6400   106
14.6500   110
14.6600   101
14.6700   119
14.6800   102
14.6900   120
14.7000   94
14.7100   116
14.7200   88
14.7300   111
14.7400   94
14.7500   105
14.7600   103
14.7700   101
14.7800   108
14.7900   120
14.8000   128
14.8100   105
14.8200   116
14.8300   114
14.8400   121
14.8500   115
14.8600   108
14.8700   109
14.8800   110
14.8900   113
14.9000   118
14.9100   111
14.9200   129
14.9300   136
14.9400   131
14.9500   115
14.9600   120
14.9700   114
14.9800   121
14.9900   126
15.0000   92
15.0100   133
15.0200   96
15.0300   97
15.0400   116
15.0500   118
15.0600   103
15.0700   120
15.0800   103
15.0900   119
15.1000   124
15.1100   95
15.1200   91
15.1300   112
15.1400   93
15.1500   84
15.1600   99
15.1700   96
15.1800   99
15.1900   99
15.2000   115
15.2100   94
15.2200   95
15.2300   108
15.2400   110
15.2500   98
15.2600   92
15.2700   94
15.2800   104
15.2900   97
15.3000   95
15.3100   80
15.3200   87
15.3300   85
15.3400   89
15.3500   92
15.3600   84
15.3700   84
15.3800   90
15.3900   86
15.4000   77
15.4100   93
15.4200   77
15.4300   82
15.4400   95
15.4500   87
15.4600   72
15.4700   71
15.4800   88
15.4900   89
15.5000   98
15.5100   96
15.5200   82
15.5300   94
15.5400   83
15.5500   85
15.5600   96
15.5700   94
15.5800   89
15.5900   94
15.6000   91
15.6100   86
15.6200   89
15.6300   91
15.6400   81
15.6500   81
15.6600   78
15.6700   84
15.6800   78
15.6900   87
15.7000   96
15.7100   71
15.7200   88
15.7300   84
15.7400   89
15.7500   78
15.7600   84
15.7700   74
15.7800   78
15.7900   82
15.8000   76
15.8100   75
15.8200   74
15.8300   79
15.8400   75
15.8500   77
15.8600   79
15.8700   60
15.8800   78
15.8900   77
15.9000   81
15.9100   62
15.9200   66
15.9300   65
15.9400   70
15.9500   64
15.9600   74
15.9700   61
15.9800   80
15.9900   63
16.0000   65
16.0100   58
16.0200   76
16.0300   61
16.0400   63
16.0500   77
16.0600   49
16.0700   56
16.0800   60
16.0900   73
16.1000   72
16.1100   69
16.1200   62
16.1300   53
16.1400   69
16.1500   58
16.1600   63
16.1700   73
16.1800   72
16.1900   55
16.2000   49
16.2100   60
16.2200   55
16.2300   58
16.2400   48
16.2500   58
16.2600   72
16.2700   53
16.2800   63
16.2900   59
16.3000   66
16.3100   76
16.3200   52
16.3300   62
16.3400   55
16.3500   53
16.3600   63
16.3700   66
16.3800   64
16.3900   51
16.4000   55
16.4100   58
16.4200   48
16.4300   53
16.4400   60
16.4500   54
16.4600   56
16.4700   56
16.4800   60
16.4900   63
16.5000   56
16.5100   60
16.5200   46
16.5300   53
16.5400   40
16.5500   49
16.5600   63
16.5700   69
16.5800   59
16.5900   52
16.6000   48
16.6100   56
16.6200   61
16.6300   54
16.6400   53
16.6500   51
16.6600   60
16.6700   65
16.6800   58
16.6900   51
16.7000   45
16.7100   55
16.7200   39
16.7300   50
16.7400   47
16.7500   58
16.7600   60
16.7700   66
16.7800   42
16.7900   37
16.8000   45
16.8100   42
16.8200   45
16.8300   57
16.8400   38
16.8500   47
16.8600   58
16.8700   56
16.8800   53
16.8900   55
16.9000   42
16.9100   54
16.9200   52
16.9300   46
16.9400   51
16.9500   63
16.9600   54
16.9700   62
16.9800   49
16.9900   67
17.0000   41
17.0100   50
17.0200   39
17.0300   46
17.0400   63
17.0500   43
17.0600   50
17.0700   51
17.0800   55
17.0900   59
17.1000   43
17.1100   41
17.1200   59
17.1300   54
17.1400   58
17.1500   53
17.1600   55
17.1700   48
17.1800   60
17.1900   48
17.2000   41
17.2100   46
17.2200   55
17.2300   54
17.2400   49
17.2500   58
17.2600   50
17.2700   51
17.2800   55
17.2900   56
17.3000   63
17.3100   35
17.3200   46
17.3300   53
17.3400   39
17.3500   48
17.3600   46
17.3700   57
17.3800   56
17.3900   36
17.4000   64
17.4100   50
17.4200   51
17.4300   46
17.4400   48
17.4500   45
17.4600   47
17.4700   51
17.4800   56
17.4900   47
17.5000   46
17.5100   51
17.5200   67
17.5300   61
17.5400   48
17.5500   50
17.5600   59
17.5700   49
17.5800   44
17.5900   51
17.6000   49
17.6100   47
17.6200   47
17.6300   43
17.6400   45
17.6500   52
17.6600   44
17.6700   58
17.6800   29
17.6900   52
17.7000   52
17.7100   53
17.7200   53
17.7300   47
17.7400   51
17.7500   47
17.7600   55
17.7700   47
17.7800   34
17.7900   61
17.8000   62
17.8100   54
17.8200   51
17.8300   63
17.8400   48
17.8500   53
17.8600   52
17.8700   53
17.8800   57
17.8900   44
17.9000   44
17.9100   40
17.9200   49
17.9300   43
17.9400   56
17.9500   43
17.9600   61
17.9700   47
17.9800   49
17.9900   50
18.0000   60
18.0100   32
18.0200   44
18.0300   56
18.0400   60
18.0500   51
18.0600   48
18.0700   55
18.0800   46
18.0900   55
18.1000   52
18.1100   46
18.1200   40
18.1300   37
18.1400   37
18.1500   55
18.1600   46
18.1700   46
18.1800   45
18.1900   58
18.2000   37
18.2100   40
18.2200   51
18.2300   45
18.2400   49
18.2500   44
18.2600   40
18.2700   36
18.2800   47
18.2900   60
18.3000   42
18.3100   40
18.3200   55
18.3300   50
18.3400   44
18.3500   48
18.3600   45
18.3700   47
18.3800   57
18.3900   44
18.4000   52
18.4100   43
18.4200   50
18.4300   46
18.4400   45
18.4500   37
18.4600   43
18.4700   47
18.4800   45
18.4900   40
18.5000   51
18.5100   60
18.5200   52
18.5300   45
18.5400   48
18.5500   38
18.5600   48
18.5700   45
18.5800   37
18.5900   52
18.6000   55
18.6100   42
18.6200   29
18.6300   37
18.6400   35
18.6500   43
18.6600   43
18.6700   42
18.6800   42
18.6900   47
18.7000   43
18.7100   37
18.7200   47
18.7300   53
18.7400   55
18.7500   52
18.7600   54
18.7700   30
18.7800   38
18.7900   38
18.8000   43
18.8100   47
18.8200   43
18.8300   53
18.8400   74
18.8500   48
18.8600   48
18.8700   46
18.8800   54
18.8900   43
18.9000   48
18.9100   48
18.9200   39
18.9300   48
18.9400   49
18.9500   42
18.9600   48
18.9700   48
18.9800   44
18.9900   45
19.0000   58
19.0100   52
19.0200   57
19.0300   39
19.0400   39
19.0500   31
19.0600   42
19.0700   36
19.0800   49
19.0900   40
19.1000   39
19.1100   48
19.1200   39
19.1300   56
19.1400   45
19.1500   37
19.1600   41
19.1700   50
19.1800   45
19.1900   52
19.2000   38
19.2100   45
19.2200   51
19.2300   45
19.2400   44
19.2500   34
19.2600   47
19.2700   34
19.2800   42
19.2900   46
19.3000   43
19.3100   48
19.3200   61
19.3300   47
19.3400   46
19.3500   27
19.3600   33
19.3700   32
19.3800   46
19.3900   34
19.4000   50
19.4100   49
19.4200   44
19.4300   44
19.4400   58
19.4500   36
19.4600   33
19.4700   49
19.4800   41
19.4900   50
19.5000   31
19.5100   46
19.5200   46
19.5300   53
19.5400   44
19.5500   42
19.5600   47
19.5700   40
19.5800   52
19.5900   44
19.6000   45
19.6100   39
19.6200   44
19.6300   59
19.6400   52
19.6500   40
19.6600   39
19.6700   48
19.6800   54
19.6900   52
19.7000   39
19.7100   38
19.7200   33
19.7300   44
19.7400   42
19.7500   37
19.7600   36
19.7700   50
19.7800   35
19.7900   46
19.8000   50
19.8100   51
19.8200   36
19.8300   48
19.8400   56
19.8500   34
19.8600   52
19.8700   38
19.8800   29
19.8900   39
19.9000   43
19.9100   37
19.9200   37
19.9300   40
19.9400   36
19.9500   39
19.9600   39
19.9700   51
19.9800   57
19.9900   56
20.0000   40
20.0100   45
20.0200   43
20.0300   37
20.0400   35
20.0500   48
20.0600   49
20.0700   28
20.0800   39
20.0900   46
20.1000   37
20.1100   36
20.1200   42
20.1300   33
20.1400   43
20.1500   40
20.1600   49
20.1700   38
20.1800   37
20.1900   49
20.2000   38
20.2100   45
20.2200   41
20.2300   35
20.2400   40
20.2500   40
20.2600   38
20.2700   42
20.2800   27
20.2900   31
20.3000   42
20.3100   35
20.3200   36
20.3300   40
20.3400   41
20.3500   38
20.3600   40
20.3700   47
20.3800   36
20.3900   38
20.4000   31
20.4100   47
20.4200   33
20.4300   32
20.4400   44
20.4500   32
20.4600   35
20.4700   42
20.4800   53
20.4900   44
20.5000   41
20.5100   36
20.5200   37
20.5300   34
20.5400   30
20.5500   37
20.5600   45
20.5700   39
20.5800   32
20.5900   37
20.6000   44
20.6100   39
20.6200   34
20.6300   42
20.6400   38
20.6500   32
20.6600   33
20.6700   46
20.6800   41
20.6900   45
20.7000   38
20.7100   44
20.7200   46
20.7300   43
20.7400   30
20.7500   38
20.7600   48
20.7700   41
20.7800   36
20.7900   45
20.8000   42
20.8100   45
20.8200   43
20.8300   34
20.8400   34
20.8500   49
20.8600   48
20.8700   40
20.8800   38
20.8900   42
20.9000   36
20.9100   36
20.9200   41
20.9300   39
20.9400   34
20.9500   40
20.9600   38
20.9700   43
20.9800   42
20.9900   44
21.0000   40
21.0100   42
21.0200   54
21.0300   33
21.0400   28
21.0500   42
21.0600   49
21.0700   36
21.0800   43
21.0900   46
21.1000   43
21.1100   41
21.1200   47
21.1300   33
21.1400   40
21.1500   41
21.1600   37
21.1700   34
21.1800   39
21.1900   40
21.2000   42
21.2100   37
21.2200   41
21.2300   51
21.2400   43
21.2500   42
21.2600   41
21.2700   50
21.2800   39
21.2900   41
21.3000   46
21.3100   42
21.3200   38
21.3300   28
21.3400   40
21.3500   37
21.3600   34
21.3700   40
21.3800   48
21.3900   40
21.4000   51
21.4100   49
21.4200   53
21.4300   33
21.4400   48
21.4500   48
21.4600   41
21.4700   44
21.4800   35
21.4900   50
21.5000   43
21.5100   48
21.5200   34
21.5300   33
21.5400   49
21.5500   43
21.5600   50
21.5700   45
21.5800   47
21.5900   41
21.6000   39
21.6100   47
21.6200   36
21.6300   48
21.6400   46
21.6500   39
21.6600   43
21.6700   34
21.6800   44
21.6900   48
21.7000   43
21.7100   42
21.7200   39
21.7300   41
21.7400   42
21.7500   37
21.7600   34
21.7700   34
21.7800   34
21.7900   29
21.8000   37
21.8100   42
21.8200   47
21.8300   26
21.8400   39
21.8500   37
21.8600   40
21.8700   36
21.8800   40
21.8900   33
21.9000   41
21.9100   31
21.9200   35
21.9300   40
21.9400   43
21.9500   48
21.9600   43
21.9700   41
21.9800   40
21.9900   45
22.0000   31
22.0100   41
22.0200   33
22.0300   49
22.0400   40
22.0500   41
22.0600   34
22.0700   45
22.0800   40
22.0900   32
22.1000   41
22.1100   42
22.1200   36
22.1300   40
22.1400   37
22.1500   29
22.1600   25
22.1700   29
22.1800   32
22.1900   35
22.2000   37
22.2100   31
22.2200   37
22.2300   35
22.2400   34
22.2500   39
22.2600   38
22.2700   39
22.2800   33
22.2900   39
22.3000   31
22.3100   33
22.3200   44
22.3300   42
22.3400   26
22.3500   24
22.3600   29
22.3700   36
22.3800   27
22.3900   31
22.4000   36
22.4100   34
22.4200   31
22.4300   40
22.4400   34
22.4500   45
22.4600   40
22.4700   35
22.4800   40
22.4900   38
22.5000   31
22.5100   33
22.5200   31
22.5300   43
22.5400   35
22.5500   40
22.5600   33
22.5700   36
22.5800   41
22.5900   28
22.6000   42
22.6100   36
22.6200   42
22.6300   38
22.6400   37
22.6500   40
22.6600   32
22.6700   31
22.6800   38
22.6900   45
22.7000   35
22.7100   29
22.7200   36
22.7300   40
22.7400   40
22.7500   27
22.7600   38
22.7700   37
22.7800   41
22.7900   31
22.8000   41
22.8100   38
22.8200   30
22.8300   31
22.8400   35
22.8500   32
22.8600   36
22.8700   26
22.8800   28
22.8900   29
22.9000   41
22.9100   32
22.9200   40
22.9300   29
22.9400   36
22.9500   34
22.9600   38
22.9700   38
22.9800   38
22.9900   33
23.0000   23
23.0100   29
23.0200   31
23.0300   29
23.0400   39
23.0500   39
23.0600   37
23.0700   26
23.0800   31
23.0900   30
23.1000   35
23.1100   41
23.1200   42
23.1300   39
23.1400   29
23.1500   42
23.1600   25
23.1700   28
23.1800   38
23.1900   34
23.2000   26
23.2100   30
23.2200   24
23.2300   27
23.2400   28
23.2500   39
23.2600   29
23.2700   37
23.2800   39
23.2900   28
23.3000   32
23.3100   27
23.3200   22
23.3300   30
23.3400   33
23.3500   26
23.3600   34
23.3700   30
23.3800   33
23.3900   31
23.4000   31
23.4100   37
23.4200   30
23.4300   29
23.4400   32
23.4500   40
23.4600   35
23.4700   45
23.4800   39
23.4900   37
23.5000   31
23.5100   31
23.5200   27
23.5300   31
23.5400   23
23.5500   29
23.5600   25
23.5700   36
23.5800   41
23.5900   30
23.6000   34
23.6100   30
23.6200   36
23.6300   39
23.6400   29
23.6500   30
23.6600   29
23.6700   35
23.6800   29
23.6900   33
23.7000   40
23.7100   32
23.7200   36
23.7300   26
23.7400   23
23.7500   15
23.7600   40
23.7700   31
23.7800   31
23.7900   26
23.8000   25
23.8100   30
23.8200   28
23.8300   35
23.8400   27
23.8500   30
23.8600   31
23.8700   41
23.8800   24
23.8900   30
23.9000   37
23.9100   30
23.9200   35
23.9300   48
23.9400   27
23.9500   32
23.9600   32
23.9700   25
23.9800   29
23.9900   32
24.0000   37
24.0100   25
24.0200   32
24.0300   21
24.0400   32
24.0500   28
24.0600   37
24.0700   38
24.0800   39
24.0900   34
24.1000   36
24.1100   28
24.1200   35
24.1300   42
24.1400   33
24.1500   33
24.1600   32
24.1700   33
24.1800   26
24.1900   33
24.2000   32
24.2100   23
24.2200   31
24.2300   36
24.2400   39
24.2500   30
24.2600   19
24.2700   25
24.2800   29
24.2900   32
24.3000   33
24.3100   33
24.3200   30
24.3300   38
24.3400   36
24.3500   39
24.3600   29
24.3700   33
24.3800   26
24.3900   36
24.4000   26
24.4100   26
24.4200   21
24.4300   30
24.4400   32
24.4500   27
24.4600   35
24.4700   36
24.4800   36
24.4900   41
24.5000   25
24.5100   22
24.5200   32
24.5300   36
24.5400   36
24.5500   34
24.5600   34
24.5700   32
24.5800   27
24.5900   30
24.6000   30
24.6100   24
24.6200   34
24.6300   33
24.6400   29
24.6500   26
24.6600   35
24.6700   35
24.6800   23
24.6900   26
24.7000   31
24.7100   31
24.7200   36
24.7300   35
24.7400   28
24.7500   25
24.7600   30
24.7700   33
24.7800   29
24.7900   22
24.8000   23
24.8100   34
24.8200   29
24.8300   26
24.8400   35
24.8500   22
24.8600   30
24.8700   23
24.8800   28
24.8900   24
24.9000   23
24.9100   30
24.9200   29
24.9300   33
24.9400   35
24.9500   28
24.9600   35
24.9700   30
24.9800   33
24.9900   27
25.0000   29
25.0100   34
25.0200   25
25.0300   28
25.0400   31
25.0500   36
25.0600   29
25.0700   30
25.0800   26
25.0900   30
25.1000   30
25.1100   22
25.1200   23
25.1300   27
25.1400   28
25.1500   38
25.1600   21
25.1700   30
25.1800   30
25.1900   21
25.2000   38
25.2100   28
25.2200   21
25.2300   18
25.2400   27
25.2500   17
25.2600   31
25.2700   17
25.2800   20
25.2900   26
25.3000   26
25.3100   38
25.3200   26
25.3300   14
25.3400   25
25.3500   36
25.3600   26
25.3700   23
25.3800   25
25.3900   37
25.4000   30
25.4100   34
25.4200   21
25.4300   25
25.4400   31
25.4500   23
25.4600   31
25.4700   24
25.4800   36
25.4900   28
25.5000   26
25.5100   34
25.5200   37
25.5300   31
25.5400   28
25.5500   34
25.5600   22
25.5700   32
25.5800   28
25.5900   28
25.6000   25
25.6100   20
25.6200   28
25.6300   25
25.6400   24
25.6500   27
25.6600   27
25.6700   33
25.6800   28
25.6900   27
25.7000   22
25.7100   26
25.7200   36
25.7300   26
25.7400   26
25.7500   24
25.7600   22
25.7700   31
25.7800   31
25.7900   26
25.8000   23
25.8100   30
25.8200   29
25.8300   23
25.8400   34
25.8500   25
25.8600   30
25.8700   29
25.8800   23
25.8900   36
25.9000   27
25.9100   21
25.9200   26
25.9300   30
25.9400   31
25.9500   23
25.9600   26
25.9700   34
25.9800   28
25.9900   28
26.0000   29
26.0100   34
26.0200   30
26.0300   27
26.0400   28
26.0500   27
26.0600   29
26.0700   21
26.0800   35
26.0900   37
26.1000   27
26.1100   30
26.1200   30
26.1300   29
26.1400   18
26.1500   21
26.1600   29
26.1700   27
26.1800   31
26.1900   37
26.2000   35
26.2100   34
26.2200   31
26.2300   33
26.2400   33
26.2500   31
26.2600   30
26.2700   33
26.2800   28
26.2900   42
26.3000   34
26.3100   43
26.3200   26
26.3300   31
26.3400   33
26.3500   35
26.3600   41
26.3700   49
26.3800   38
26.3900   37
26.4000   39
26.4100   39
26.4200   52
26.4300   67
26.4400   45
26.4500   53
26.4600   65
26.4700   68
26.4800   69
26.4900   74
26.5000   68
26.5100   76
26.5200   94
26.5300   85
26.5400   87
26.5500   90
26.5600   76
26.5700   63
26.5800   47
26.5900   52
26.6000   57
26.6100   46
26.6200   38
26.6300   35
26.6400   38
26.6500   37
26.6600   29
26.6700   32
26.6800   30
26.6900   30
26.7000   17
26.7100   28
26.7200   27
26.7300   29
26.7400   31
26.7500   30
26.7600   21
26.7700   21
26.7800   31
26.7900   31
26.8000   25
26.8100   35
26.8200   25
26.8300   24
26.8400   25
26.8500   27
26.8600   31
26.8700   25
26.8800   34
26.8900   25
26.9000   25
26.9100   32
26.9200   28
26.9300   33
26.9400   27
26.9500   25
26.9600   15
26.9700   28
26.9800   22
26.9900   22
27.0000   20
27.0100   21
27.0200   29
27.0300   23
27.0400   34
27.0500   20
27.0600   20
27.0700   24
27.0800   22
27.0900   22
27.1000   22
27.1100   28
27.1200   31
27.1300   30
27.1400   24
27.1500   27
27.1600   29
27.1700   22
27.1800   33
27.1900   22
27.2000   29
27.2100   27
27.2200   28
27.2300   27
27.2400   31
27.2500   28
27.2600   32
27.2700   20
27.2800   25
27.2900   11
27.3000   25
27.3100   30
27.3200   28
27.3300   30
27.3400   34
27.3500   34
27.3600   28
27.3700   26
27.3800   34
27.3900   31
27.4000   28
27.4100   22
27.4200   33
27.4300   22
27.4400   20
27.4500   24
27.4600   20
27.4700   25
27.4800   23
27.4900   24
27.5000   24
27.5100   28
27.5200   23
27.5300   23
27.5400   23
27.5500   26
27.5600   30
27.5700   32
27.5800   34
27.5900   33
27.6000   33
27.6100   20
27.6200   23
27.6300   17
27.6400   1042
27.6500   36
27.6600   26
27.6700   39
27.6800   41
27.6900   43
27.7000   35
27.7100   46
27.7200   49
27.7300   38
27.7400   25
27.7500   29
27.7600   42
27.7700   32
27.7800   23
27.7900   30
27.8000   27
27.8100   29
27.8200   29
27.8300   24
27.8400   25
27.8500   25
27.8600   34
27.8700   25
27.8800   22
27.8900   29
27.9000   24
27.9100   28
27.9200   25
27.9300   33
27.9400   24
27.9500   24
27.9600   36
27.9700   23
27.9800   25
27.9900   30
28.0000   21
28.0100   23
28.0200   28
28.0300   28
28.0400   29
28.0500   14
28.0600   25
28.0700   28
28.0800   32
28.0900   26
28.1000   28
28.1100   30
28.1200   30
28.1300   17
28.1400   21
28.1500   24
28.1600   22
28.1700   33
28.1800   27
28.1900   27
28.2000   33
28.2100   30
28.2200   24
28.2300   28
28.2400   20
28.2500   27
28.2600   35
28.2700   18
28.2800   24
28.2900   31
28.3000   24
28.3100   17
28.3200   29
28.3300   22
28.3400   22
28.3500   25
28.3600   30
28.3700   37
28.3800   25
28.3900   29
28.4000   30
28.4100   24
28.4200   28
28.4300   24
28.4400   24
28.4500   31
28.4600   27
28.4700   31
28.4800   20
28.4900   25
28.5000   30
28.5100   35
28.5200   32
28.5300   30
28.5400   34
28.5500   28
28.5600   24
28.5700   31
28.5800   22
28.5900   17
28.6000   34
28.6100   30
28.6200   29
28.6300   25
28.6400   22
28.6500   30
28.6600   31
28.6700   31
28.6800   31
28.6900   21
28.7000   30
28.7100   32
28.7200   26
28.7300   20
28.7400   22
28.7500   18
28.7600   548
28.7700   25
28.7800   31
28.7900   24
28.8000   26
28.8100   25
28.8200   29
28.8300   26
28.8400   22
28.8500   33
28.8600   23
28.8700   30
28.8800   32
28.8900   25
28.9000   23
28.9100   25
28.9200   24
28.9300   34
28.9400   19
28.9500   26
28.9600   24
28.9700   31
28.9800   24
28.9900   16
29.0000   38
29.0100   18
29.0200   29
29.0300   30
29.0400   28
29.0500   25
29.0600   34
29.0700   20
29.0800   29
29.0900   24
29.1000   28
29.1100   28
29.1200   33
29.1300   31
29.1400   27
29.1500   30
29.1600   28
29.1700   24
29.1800   22
29.1900   26
29.2000   23
29.2100   22
29.2200   27
29.2300   22
29.2400   16
29.2500   22
29.2600   17
29.2700   29
29.2800   31
29.2900   31
29.3000   33
29.3100   30
29.3200   26
29.3300   16
29.3400   23
29.3500   29
29.3600   35
29.3700   26
29.3800   38
29.3900   34
29.4000   33
29.4100   29
29.4200   35
29.4300   40
29.4400   35
29.4500   40
29.4600   38
29.4700   41
29.4800   30
29.4900   37
29.5000   41
29.5100   46
29.5200   38
29.5300   33
29.5400   31
29.5500   42
29.5600   38
29.5700   44
29.5800   33
29.5900   37
29.6000   31
29.6100   23
29.6200   28
29.6300   28
29.6400   36
29.6500   37
29.6600   30
29.6700   27
29.6800   31
29.6900   33
29.7000   42
29.7100   46
29.7200   39
29.7300   44
29.7400   41
29.7500   37
29.7600   37
29.7700   36
29.7800   40
29.7900   36
29.8000   37
29.8100   30
29.8200   44
29.8300   33
29.8400   43
29.8500   50
29.8600   39
29.8700   49
29.8800   35
29.8900   50
29.9000   46
29.9100   51
29.9200   43
29.9300   40
29.9400   42
29.9500   47
29.9600   59
29.9700   48
29.9800   48
29.9900   50
30.0000   47
30.0100   51
30.0200   57
30.0300   60
30.0400   65
30.0500   45
30.0600   67
30.0700   42
30.0800   53
30.0900   58
30.1000   58
30.1100   51
30.1200   59
30.1300   69
30.1400   65
30.1500   53
30.1600   67
30.1700   61
30.1800   67
30.1900   60
30.2000   63
30.2100   76
30.2200   61
30.2300   78
30.2400   82
30.2500   86
30.2600   85
30.2700   97
30.2800   85
30.2900   94
30.3000   80
30.3100   107
30.3200   91
30.3300   92
30.3400   97
30.3500   111
30.3600   109
30.3700   120
30.3800   122
30.3900   135
30.4000   107
30.4100   123
30.4200   118
30.4300   139
30.4400   146
30.4500   138
30.4600   116
30.4700   133
30.4800   137
30.4900   119
30.5000   127
30.5100   160
30.5200   158
30.5300   149
30.5400   158
30.5500   175
30.5600   170
30.5700   162
30.5800   207
30.5900   206
30.6000   216
30.6100   263
30.6200   274
30.6300   304
30.6400   356
30.6500   366
30.6600   452
30.6700   508
30.6800   672
30.6900   718
30.7000   865
30.7100   1051
30.7200   1385
30.7300   1649
30.7400   2154
30.7500   2509
30.7600   3065
30.7700   3650
30.7800   4390
30.7900   5413
30.8000   6633
30.8100   8732
30.8200   11169
30.8300   13560
30.8400   15356
30.8500   15417
30.8600   14954
30.8700   13476
30.8800   12051
30.8900   11375
30.9000   10393
30.9100   9470
30.9200   8814
30.9300   8316
30.9400   7248
30.9500   6000
30.9600   4841
30.9700   3853
30.9800   2912
30.9900   2014
31.0000   1294
31.0100   958
31.0200   681
31.0300   514
31.0400   343
31.0500   277
31.0600   266
31.0700   212
31.0800   219
31.0900   207
31.1000   158
31.1100   164
31.1200   145
31.1300   141
31.1400   140
31.1500   139
31.1600   119
31.1700   115
31.1800   105
31.1900   101
31.2000   100
31.2100   97
31.2200   85
31.2300   84
31.2400   99
31.2500   82
31.2600   82
31.2700   77
31.2800   81
31.2900   53
31.3000   72
31.3100   57
31.3200   62
31.3300   58
31.3400   60
31.3500   64
31.3600   51
31.3700   64
31.3800   74
31.3900   55
31.4000   38
31.4100   49
31.4200   57
31.4300   56
31.4400   50
31.4500   53
31.4600   63
31.4700   47
31.4800   57
31.4900   54
31.5000   47
31.5100   47
31.5200   51
31.5300   53
31.5400   33
31.5500   37
31.5600   43
31.5700   43
31.5800   51
31.5900   45
31.6000   57
31.6100   47
31.6200   45
31.6300   40
31.6400   42
31.6500   36
31.6600   38
31.6700   40
31.6800   39
31.6900   32
31.7000   38
31.7100   41
31.7200   33
31.7300   38
31.7400   36
31.7500   25
31.7600   43
31.7700   36
31.7800   32
31.7900   28
31.8000   29
31.8100   32
31.8200   32
31.8300   36
31.8400   42
31.8500   38
31.8600   33
31.8700   37
31.8800   34
31.8900   30
31.9000   18
31.9100   30
31.9200   44
31.9300   36
31.9400   20
31.9500   28
31.9600   30
31.9700   36
31.9800   33
31.9900   33
32.0000   23
32.0100   34
32.0200   28
32.0300   24
32.0400   28
32.0500   24
32.0600   29
32.0700   41
32.0800   27
32.0900   33
32.1000   34
32.1100   27
32.1200   31
32.1300   23
32.1400   18
32.1500   28
32.1600   30
32.1700   23
32.1800   29
32.1900   24
32.2000   21
32.2100   20
32.2200   30
32.2300   28
32.2400   29
32.2500   25
32.2600   23
32.2700   25
32.2800   24
32.2900   36
32.3000   31
32.3100   29
32.3200   37
32.3300   34
32.3400   28
32.3500   23
32.3600   21
32.3700   26
32.3800   34
32.3900   19
32.4000   20
32.4100   29
32.4200   27
32.4300   18
32.4400   20
32.4500   27
32.4600   19
32.4700   23
32.4800   17
32.4900   36
32.5000   27
32.5100   18
32.5200   22
32.5300   16
32.5400   22
32.5500   28
32.5600   33
32.5700   17
32.5800   21
32.5900   25
32.6000   33
32.6100   21
32.6200   28
32.6300   27
32.6400   40
32.6500   21
32.6600   26
32.6700   30
32.6800   22
32.6900   28
32.7000   25
32.7100   25
32.7200   30
32.7300   29
32.7400   28
32.7500   26
32.7600   26
32.7700   30
32.7800   23
32.7900   31
32.8000   24
32.8100   16
32.8200   19
32.8300   487
32.8400   37
32.8500   19
32.8600   28
32.8700   22
32.8800   25
32.8900   21
32.9000   26
32.9100   27
32.9200   25
32.9300   26
32.9400   20
32.9500   29
32.9600   27
32.9700   29
32.9800   25
32.9900   24
33.0000   25
33.0100   24
33.0200   15
33.0300   22
33.0400   15
33.0500   19
33.0600   26
33.0700   28
33.0800   30
33.0900   26
33.1000   29
33.1100   20
33.1200   17
33.1300   22
33.1400   27
33.1500   24
33.1600   23
33.1700   24
33.1800   27
33.1900   22
33.2000   21
33.2100   21
33.2200   25
33.2300   28
33.2400   24
33.2500   19
33.2600   22
33.2700   32
33.2800   19
33.2900   27
33.3000   26
33.3100   26
33.3200   23
33.3300   19
33.3400   27
33.3500   31
33.3600   26
33.3700   36
33.3800   24
33.3900   22
33.4000   12
33.4100   18
33.4200   12
33.4300   18
33.4400   15
33.4500   20
33.4600   20
33.4700   17
33.4800   21
33.4900   21
33.5000   16
33.5100   19
33.5200   21
33.5300   19
33.5400   17
33.5500   21
33.5600   25
33.5700   27
33.5800   13
33.5900   17
33.6000   22
33.6100   20
33.6200   19
33.6300   23
33.6400   23
33.6500   16
33.6600   21
33.6700   18
33.6800   20
33.6900   28
33.7000   16
33.7100   23
33.7200   19
33.7300   25
33.7400   19
33.7500   24
33.7600   16
33.7700   22
33.7800   15
33.7900   16
33.8000   17
33.8100   22
33.8200   22
33.8300   24
33.8400   25
33.8500   27
33.8600   26
33.8700   25
33.8800   17
33.8900   21
33.9000   28
33.9100   14
33.9200   19
33.9300   20
33.9400   23
33.9500   21
33.9600   20
33.9700   21
33.9800   28
33.9900   15
34.0000   19
34.0100   25
34.0200   32
34.0300   17
34.0400   25
34.0500   25
34.0600   24
34.0700   17
34.0800   25
34.0900   22
34.1000   23
34.1100   24
34.1200   18
34.1300   30
34.1400   18
34.1500   14
34.1600   17
34.1700   24
34.1800   17
34.1900   21
34.2000   29
34.2100   17
34.2200   20
34.2300   18
34.2400   20
34.2500   21
34.2600   26
34.2700   22
34.2800   24
34.2900   24
34.3000   16
34.3100   28
34.3200   17
34.3300   24
34.3400   27
34.3500   24
34.3600   27
34.3700   27
34.3800   16
34.3900   24
34.4000   27
34.4100   25
34.4200   26
34.4300   32
34.4400   27
34.4500   25
34.4600   27
34.4700   25
34.4800   23
34.4900   26
34.5000   16
34.5100   13
34.5200   18
34.5300   21
34.5400   30
34.5500   31
34.5600   18
34.5700   16
34.5800   19
34.5900   26
34.6000   22
34.6100   29
34.6200   24
34.6300   20
34.6400   26
34.6500   27
34.6600   26
34.6700   29
34.6800   31
34.6900   20
34.7000   23
34.7100   21
34.7200   23
34.7300   25
34.7400   26
34.7500   18
34.7600   17
34.7700   17
34.7800   28
34.7900   21
34.8000   27
34.8100   29
34.8200   21
34.8300   27
34.8400   17
34.8500   13
34.8600   22
34.8700   31
34.8800   25
34.8900   25
34.9000   29
34.9100   27
34.9200   21
34.9300   25
34.9400   18
34.9500   23
34.9600   22
34.9700   22
34.9800   27
34.9900   26
35.0000   17
35.0100   25
35.0200   13
35.0300   33
35.0400   21
35.0500   20
35.0600   19
35.0700   21
35.0800   17
35.0900   18
35.1000   13
35.1100   16
35.1200   17
35.1300   22
35.1400   26
35.1500   20
35.1600   16
35.1700   18
35.1800   8
35.1900   10
35.2000   11
35.2100   617
35.2200   22
35.2300   20
35.2400   23
35.2500   27
35.2600   13
35.2700   19
35.2800   13
35.2900   18
35.3000   19
35.3100   20
35.3200   19
35.3300   12
35.3400   17
35.3500   21
35.3600   26
35.3700   15
35.3800   8
35.3900   22
35.4000   14
35.4100   19
35.4200   15
35.4300   17
35.4400   20
35.4500   20
35.4600   23
35.4700   23
35.4800   19
35.4900   18
35.5000   17
35.5100   16
35.5200   17
35.5300   23
35.5400   15
35.5500   15
35.5600   16
35.5700   15
35.5800   18
35.5900   18
35.6000   17
35.6100   19
35.6200   23
35.6300   15
35.6400   15
35.6500   12
35.6600   16
35.6700   18
35.6800   23
35.6900   23
35.7000   21
35.7100   19
35.7200   14
35.7300   21
35.7400   18
35.7500   14
35.7600   18
35.7700   23
35.7800   19
35.7900   17
35.8000   15
35.8100   13
35.8200   18
35.8300   16
35.8400   21
35.8500   17
35.8600   22
35.8700   12
35.8800   13
35.8900   22
35.9000   24
35.9100   13
35.9200   19
35.9300   19
35.9400   10
35.9500   15
35.9600   18
35.9700   22
35.9800   21
35.9900   23
36.0000   15
36.0100   19
36.0200   8
36.0300   17
36.0400   14
36.0500   14
36.0600   17
36.0700   13
36.0800   17
36.0900   25
36.1000   16
36.1100   14
36.1200   10
36.1300   11
36.1400   20
36.1500   18
36.1600   19
36.1700   12
36.1800   11
36.1900   11
36.2000   12
36.2100   15
36.2200   19
36.2300   11
36.2400   16
36.2500   14
36.2600   16
36.2700   23
36.2800   23
36.2900   22
36.3000   16
36.3100   18
36.3200   10
36.3300   16
36.3400   13
36.3500   16
36.3600   23
36.3700   18
36.3800   14
36.3900   10
36.4000   15
36.4100   17
36.4200   12
36.4300   11
36.4400   21
36.4500   25
36.4600   11
36.4700   15
36.4800   21
36.4900   16
36.5000   13
36.5100   16
36.5200   20
36.5300   19
36.5400   11
36.5500   14
36.5600   19
36.5700   15
36.5800   17
36.5900   21
36.6000   19
36.6100   16
36.6200   19
36.6300   14
36.6400   10
36.6500   11
36.6600   519
36.6700   19
36.6800   17
36.6900   20
36.7000   11
36.7100   15
36.7200   19
36.7300   18
36.7400   19
36.7500   18
36.7600   18
36.7700   24
36.7800   17
36.7900   19
36.8000   14
36.8100   13
36.8200   9
36.8300   7
36.8400   14
36.8500   18
36.8600   15
36.8700   18
36.8800   13
36.8900   8
36.9000   13
36.9100   9
36.9200   11
36.9300   16
36.9400   14
36.9500   17
36.9600   14
36.9700   13
36.9800   18
36.9900   14
37.0000   13
37.0100   17
37.0200   25
37.0300   15
37.0400   15
37.0500   17
37.0600   20
37.0700   20
37.0800   17
37.0900   12
37.1000   14
37.1100   14
37.1200   16
37.1300   16
37.1400   19
37.1500   20
37.1600   14
37.1700   21
37.1800   17
37.1900   12
37.2000   11
37.2100   21
37.2200   12
37.2300   14
37.2400   15
37.2500   17
37.2600   12
37.2700   14
37.2800   19
37.2900   17
37.3000   20
37.3100   21
37.3200   15
37.3300   15
37.3400   16
37.3500   22
37.3600   11
37.3700   13
37.3800   13
37.3900   11
37.4000   11
37.4100   13
37.4200   18
37.4300   10
37.4400   15
37.4500   16
37.4600   20
37.4700   10
37.4800   13
37.4900   18
37.5000   16
37.5100   9
37.5200   13
37.5300   15
37.5400   19
37.5500   19
37.5600   19
37.5700   21
37.5800   15
37.5900   13
37.6000   17
37.6100   12
37.6200   13
37.6300   19
37.6400   15
37.6500   20
37.6600   13
37.6700   17
37.6800   12
37.6900   13
37.7000   19
37.7100   13
37.7200   10
37.7300   13
37.7400   13
37.7500   17
37.7600   15
37.7700   21
37.7800   12
37.7900   17
37.8000   21
37.8100   17
37.8200   21
37.8300   9
37.8400   11
37.8500   13
37.8600   14
37.8700   12
37.8800   18
37.8900   18
37.9000   17
37.9100   16
37.9200   19
37.9300   13
37.9400   15
37.9500   16
37.9600   13
37.9700   18
37.9800   14
37.9900   16
38.0000   19
38.0100   24
38.0200   19
38.0300   19
38.0400   20
38.0500   18
38.0600   18
38.0700   20
38.0800   10
38.0900   13
38.1000   12
38.1100   16
38.1200   15
38.1300   16
38.1400   15
38.1500   21
38.1600   17
38.1700   12
38.1800   14
38.1900   19
38.2000   17
38.2100   15
38.2200   21
38.2300   20
38.2400   18
38.2500   20
38.2600   19
38.2700   18
38.2800   18
38.2900   16
38.3000   23
38.3100   9
38.3200   24
38.3300   9
38.3400   21
38.3500   11
38.3600   13
38.3700   15
38.3800   16
38.3900   20
38.4000   15
38.4100   17
38.4200   18
38.4300   20
38.4400   17
38.4500   17
38.4600   15
38.4700   21
38.4800   18
38.4900   19
38.5000   12
38.5100   11
38.5200   16
38.5300   15
38.5400   16
38.5500   16
38.5600   13
38.5700   12
38.5800   14
38.5900   14
38.6000   10
38.6100   15
38.6200   16
38.6300   14
38.6400   16
38.6500   15
38.6600   18
38.6700   20
38.6800   14
38.6900   19
38.7000   11
38.7100   10
38.7200   22
38.7300   17
38.7400   18
38.7500   19
38.7600   20
38.7700   21
38.7800   13
38.7900   14
38.8000   15
38.8100   14
38.8200   11
38.8300   9
38.8400   10
38.8500   12
38.8600   17
38.8700   16
38.8800   23
38.8900   22
38.9000   8
38.9100   23
38.9200   19
38.9300   26
38.9400   17
38.9500   10
38.9600   14
38.9700   16
38.9800   19
38.9900   18
39.0000   22
39.0100   14
39.0200   20
39.0300   21
39.0400   10
39.0500   10
39.0600   13
39.0700   17
39.0800   20
39.0900   15
39.1000   19
39.1100   24
39.1200   16
39.1300   15
39.1400   12
39.1500   14
39.1600   15
39.1700   17
39.1800   7
39.1900   14
39.2000   14
39.2100   18
39.2200   14
39.2300   20
39.2400   18
39.2500   17
39.2600   12
39.2700   15
39.2800   13
39.2900   18
39.3000   24
39.3100   15
39.3200   14
39.3300   21
39.3400   19
39.3500   12
39.3600   9
39.3700   8
39.3800   9
39.3900   8
39.4000   16
39.4100   14
39.4200   13
39.4300   15
39.4400   18
39.4500   21
39.4600   19
39.4700   20
39.4800   17
39.4900   19
39.5000   20
39.5100   21
39.5200   14
39.5300   17
39.5400   19
39.5500   12
39.5600   11
39.5700   12
39.5800   9
39.5900   13
39.6000   10
39.6100   14
39.6200   17
39.6300   14
39.6400   15
39.6500   12
39.6600   13
39.6700   14
39.6800   19
39.6900   12
39.7000   17
39.7100   15
39.7200   19
39.7300   13
39.7400   13
39.7500   16
39.7600   14
39.7700   21
39.7800   12
39.7900   16
39.8000   6
39.8100   8
39.8200   9
39.8300   11
39.8400   16
39.8500   22
39.8600   18
39.8700   12
39.8800   13
39.8900   11
39.9000   13
39.9100   9
39.9200   16
39.9300   14
39.9400   18
39.9500   16
39.9600   13
39.9700   15
39.9800   16
39.9900   9
40.0000   13
40.0100   15
40.0200   18
40.0300   17
40.0400   25
40.0500   21
40.0600   16
40.0700   13
40.0800   16
40.0900   20
40.1000   18
40.1100   17
40.1200   17
40.1300   6
40.1400   19
40.1500   20
40.1600   17
40.1700   7
40.1800   11
40.1900   11
40.2000   13
40.2100   17
40.2200   14
40.2300   17
40.2400   11
40.2500   12
40.2600   15
40.2700   17
40.2800   13
40.2900   11
40.3000   16
40.3100   19
40.3200   13
40.3300   12
40.3400   12
40.3500   15
40.3600   14
40.3700   19
40.3800   14
40.3900   12
40.4000   16
40.4100   6
40.4200   17
40.4300   15
40.4400   16
40.4500   13
40.4600   18
40.4700   16
40.4800   24
40.4900   17
40.5000   17
40.5100   17
40.5200   14
40.5300   11
40.5400   12
40.5500   30
40.5600   14
40.5700   19
40.5800   22
40.5900   13
40.6000   17
40.6100   13
40.6200   6
40.6300   17
40.6400   22
40.6500   19
40.6600   24
40.6700   24
40.6800   14
40.6900   20
40.7000   14
40.7100   15
40.7200   11
40.7300   13
40.7400   13
40.7500   11
40.7600   10
40.7700   14
40.7800   10
40.7900   14
40.8000   18
40.8100   13
40.8200   8
40.8300   15
40.8400   19
40.8500   13
40.8600   16
40.8700   16
40.8800   14
40.8900   14
40.9000   12
40.9100   15
40.9200   17
40.9300   18
40.9400   19
40.9500   20
40.9600   21
40.9700   10
40.9800   13
40.9900   16
41.0000   19
41.0100   23
41.0200   16
41.0300   20
41.0400   17
41.0500   15
41.0600   11
41.0700   22
41.0800   17
41.0900   21
41.1000   20
41.1100   14
41.1200   18
41.1300   26
41.1400   15
41.1500   18
41.1600   18
41.1700   11
41.1800   16
41.1900   15
41.2000   13
41.2100   15
41.2200   22
41.2300   14
41.2400   17
41.2500   16
41.2600   15
41.2700   19
41.2800   7
41.2900   21
41.3000   16
41.3100   13
41.3200   19
41.3300   13
41.3400   19
41.3500   12
41.3600   13
41.3700   16
41.3800   16
41.3900   18
41.4000   21
41.4100   19
41.4200   15
41.4300   14
41.4400   14
41.4500   14
41.4600   13
41.4700   12
41.4800   16
41.4900   19
41.5000   24
41.5100   20
41.5200   13
41.5300   14
41.5400   13
41.5500   14
41.5600   19
41.5700   23
41.5800   22
41.5900   15
41.6000   17
41.6100   24
41.6200   15
41.6300   13
41.6400   13
41.6500   14
41.6600   8
41.6700   26
41.6800   8
41.6900   18
41.7000   16
41.7100   22
41.7200   11
41.7300   16
41.7400   19
41.7500   21
41.7600   19
41.7700   17
41.7800   16
41.7900   9
41.8000   18
41.8100   11
41.8200   24
41.8300   13
41.8400   14
41.8500   15
41.8600   14
41.8700   19
41.8800   9
41.8900   14
41.9000   17
41.9100   14
41.9200   18
41.9300   18
41.9400   13
41.9500   11
41.9600   23
41.9700   20
41.9800   18
41.9900   22
42.0000   16
42.0100   13
42.0200   16
42.0300   15
42.0400   21
42.0500   23
42.0600   21
42.0700   12
42.0800   14
42.0900   14
42.1000   9
42.1100   18
42.1200   12
42.1300   10
42.1400   15
42.1500   15
42.1600   12
42.1700   12
42.1800   14
42.1900   19
42.2000   16
42.2100   17
42.2200   23
42.2300   15
42.2400   15
42.2500   18
42.2600   12
42.2700   16
42.2800   20
42.2900   8
42.3000   7
42.3100   18
42.3200   16
42.3300   15
42.3400   10
42.3500   10
42.3600   13
42.3700   15
42.3800   17
42.3900   17
42.4000   11
42.4100   16
42.4200   14
42.4300   14
42.4400   21
42.4500   16
42.4600   17
42.4700   11
42.4800   7
42.4900   11
42.5000   15
42.5100   20
42.5200   11
42.5300   14
42.5400   19
42.5500   23
42.5600   20
42.5700   15
42.5800   16
42.5900   16
42.6000   14
42.6100   12
42.6200   13
42.6300   9
42.6400   13
42.6500   19
42.6600   19
42.6700   23
42.6800   23
42.6900   23
42.7000   16
42.7100   9
42.7200   11
42.7300   13
42.7400   11
42.7500   16
42.7600   15
42.7700   12
42.7800   17
42.7900   14
42.8000   16
42.8100   9
42.8200   12
42.8300   13
42.8400   10
42.8500   9
42.8600   12
42.8700   11
42.8800   13
42.8900   12
42.9000   16
42.9100   16
42.9200   13
42.9300   15
42.9400   13
42.9500   13
42.9600   15
42.9700   12
42.9800   14
42.9900   19
43.0000   13
43.0100   17
43.0200   18
43.0300   14
43.0400   18
43.0500   15
43.0600   21
43.0700   13
43.0800   9
43.0900   21
43.1000   8
43.1100   8
43.1200   11
43.1300   15
43.1400   12
43.1500   12
43.1600   13
43.1700   18
43.1800   19
43.1900   15
43.2000   15
43.2100   16
43.2200   15
43.2300   17
43.2400   16
43.2500   18
43.2600   19
43.2700   18
43.2800   10
43.2900   7
43.3000   17
43.3100   13
43.3200   13
43.3300   13
43.3400   27
43.3500   14
43.3600   18
43.3700   14
43.3800   21
43.3900   12
43.4000   13
43.4100   13
43.4200   16
43.4300   14
43.4400   8
43.4500   11
43.4600   15
43.4700   16
43.4800   17
43.4900   13
43.5000   10
43.5100   14
43.5200   15
43.5300   15
43.5400   22
43.5500   14
43.5600   16
43.5700   9
43.5800   25
43.5900   11
43.6000   14
43.6100   12
43.6200   15
43.6300   17
43.6400   12
43.6500   15
43.6600   17
43.6700   14
43.6800   17
43.6900   18
43.7000   19
43.7100   18
43.7200   10
43.7300   29
43.7400   16
43.7500   17
43.7600   10
43.7700   16
43.7800   13
43.7900   17
43.8000   14
43.8100   12
43.8200   17
43.8300   18
43.8400   14
43.8500   13
43.8600   9
43.8700   11
43.8800   22
43.8900   13
43.9000   17
43.9100   19
43.9200   17
43.9300   19
43.9400   12
43.9500   13
43.9600   15
43.9700   12
43.9800   22
43.9900   19
44.0000   26
44.0100   19
44.0200   15
44.0300   22
44.0400   16
44.0500   23
44.0600   18
44.0700   26
44.0800   25
44.0900   21
44.1000   22
44.1100   23
44.1200   21
44.1300   21
44.1400   25
44.1500   24
44.1600   20
44.1700   26
44.1800   21
44.1900   28
44.2000   31
44.2100   22
44.2200   23
44.2300   26
44.2400   31
44.2500   18
44.2600   19
44.2700   41
44.2800   24
44.2900   26
44.3000   26
44.3100   23
44.3200   29
44.3300   25
44.3400   30
44.3500   29
44.3600   39
44.3700   51
44.3800   30
44.3900   42
44.4000   63
44.4100   68
44.4200   76
44.4300   67
44.4400   87
44.4500   94
44.4600   116
44.4700   164
44.4800   140
44.4900   219
44.5000   282
44.5100   393
44.5200   500
44.5300   636
44.5400   703
44.5500   800
44.5600   748
44.5700   647
44.5800   462
44.5900   391
44.6000   328
44.6100   291
44.6200   303
44.6300   312
44.6400   339
44.6500   348
44.6600   385
44.6700   410
44.6800   367
44.6900   301
44.7000   228
44.7100   186
44.7200   133
44.7300   104
44.7400   98
44.7500   70
44.7600   62
44.7700   52
44.7800   39
44.7900   43
44.8000   40
44.8100   24
44.8200   27
44.8300   21
44.8400   23
44.8500   21
44.8600   22
44.8700   22
44.8800   25
44.8900   19
44.9000   21
44.9100   17
44.9200   13
44.9300   25
44.9400   25
44.9500   23
44.9600   25
44.9700   12
44.9800   17
44.9900   22
45.0000   16
45.0100   14
45.0200   13
45.0300   18
45.0400   15
45.0500   17
45.0600   18
45.0700   15
45.0800   11
45.0900   12
45.1000   13
45.1100   11
45.1200   17
45.1300   17
45.1400   15
45.1500   15
45.1600   16
45.1700   21
45.1800   11
45.1900   9
45.2000   12
45.2100   18
45.2200   20
45.2300   19
45.2400   20
45.2500   17
45.2600   13
45.2700   14
45.2800   15
45.2900   9
45.3000   18
45.3100   16
45.3200   11
45.3300   9
45.3400   13
45.3500   8
45.3600   9
45.3700   8
45.3800   16
45.3900   15
45.4000   17
45.4100   20
45.4200   18
45.4300   20
45.4400   14
45.4500   9
45.4600   7
45.4700   10
45.4800   7
45.4900   17
45.5000   18
45.5100   10
45.5200   14
45.5300   15
45.5400   16
45.5500   11
45.5600   13
45.5700   14
45.5800   11
45.5900   12
45.6000   12
45.6100   13
45.6200   10
45.6300   8
45.6400   13
45.6500   17
45.6600   23
45.6700   9
45.6800   14
45.6900   19
45.7000   16
45.7100   15
45.7200   11
45.7300   14
45.7400   14
45.7500   16
45.7600   16
45.7700   15
45.7800   19
45.7900   13
45.8000   7
45.8100   21
45.8200   11
45.8300   12
45.8400   13
45.8500   12
45.8600   13
45.8700   13
45.8800   14
45.8900   12
45.9000   12
45.9100   14
45.9200   19
45.9300   21
45.9400   14
45.9500   15
45.9600   21
45.9700   12
45.9800   15
45.9900   12
46.0000   17
46.0100   15
46.0200   10
46.0300   15
46.0400   16
46.0500   13
46.0600   17
46.0700   19
46.0800   16
46.0900   20
46.1000   22
46.1100   14
46.1200   11
46.1300   12
46.1400   15
46.1500   13
46.1600   12
46.1700   13
46.1800   12
46.1900   12
46.2000   12
46.2100   13
46.2200   19
46.2300   18
46.2400   14
46.2500   18
46.2600   13
46.2700   12
46.2800   15
46.2900   17
46.3000   16
46.3100   13
46.3200   18
46.3300   17
46.3400   11
46.3500   11
46.3600   10
46.3700   12
46.3800   10
46.3900   11
46.4000   500
46.4100   14
46.4200   18
46.4300   11
46.4400   16
46.4500   12
46.4600   13
46.4700   9
46.4800   13
46.4900   12
46.5000   13
46.5100   19
46.5200   17
46.5300   14
46.5400   9
46.5500   13
46.5600   10
46.5700   8
46.5800   10
46.5900   12
46.6000   10
46.6100   12
46.6200   12
46.6300   14
46.6400   18
46.6500   19
46.6600   18
46.6700   17
46.6800   15
46.6900   16
46.7000   7
46.7100   19
46.7200   13
46.7300   10
46.7400   13
46.7500   11
46.7600   11
46.7700   8
46.7800   11
46.7900   11
46.8000   11
46.8100   14
46.8200   17
46.8300   14
46.8400   12
46.8500   10
46.8600   12
46.8700   17
46.8800   13
46.8900   16
46.9000   21
46.9100   18
46.9200   11
46.9300   15
46.9400   14
46.9500   16
46.9600   14
46.9700   3
46.9800   16
46.9900   18
47.0000   22
47.0100   14
47.0200   11
47.0300   14
47.0400   10
47.0500   10
47.0600   11
47.0700   14
47.0800   10
47.0900   14
47.1000   13
47.1100   12
47.1200   18
47.1300   11
47.1400   16
47.1500   11
47.1600   11
47.1700   14
47.1800   12
47.1900   14
47.2000   16
47.2100   8
47.2200   12
47.2300   18
47.2400   14
47.2500   13
47.2600   6
47.2700   15
47.2800   10
47.2900   15
47.3000   16
47.3100   17
47.3200   14
47.3300   11
47.3400   15
47.3500   21
47.3600   17
47.3700   14
47.3800   13
47.3900   16
47.4000   8
47.4100   6
47.4200   8
47.4300   8
47.4400   5
47.4500   6
47.4600   17
47.4700   13
47.4800   19
47.4900   16
47.5000   11
47.5100   13
47.5200   18
47.5300   12
47.5400   8
47.5500   14
47.5600   14
47.5700   17
47.5800   21
47.5900   16
47.6000   18
47.6100   18
47.6200   12
47.6300   16
47.6400   17
47.6500   15
47.6600   11
47.6700   9
47.6800   10
47.6900   10
47.7000   7
47.7100   22
47.7200   13
47.7300   14
47.7400   18
47.7500   14
47.7600   10
47.7700   14
47.7800   19
47.7900   16
47.8000   11
47.8100   12
47.8200   15
47.8300   12
47.8400   9
47.8500   23
47.8600   12
47.8700   15
47.8800   13
47.8900   16
47.9000   19
47.9100   15
47.9200   11
47.9300   14
47.9400   17
47.9500   15
47.9600   13
47.9700   14
47.9800   17
47.9900   15
48.0000   21
48.0100   19
48.0200   20
48.0300   13
48.0400   12
48.0500   15
48.0600   18
48.0700   17
48.0800   19
48.0900   16
48.1000   17
48.1100   19
48.1200   12
48.1300   10
48.1400   8
48.1500   11
48.1600   12
48.1700   10
48.1800   14
48.1900   12
48.2000   11
48.2100   15
48.2200   13
48.2300   6
48.2400   16
48.2500   10
48.2600   13
48.2700   17
48.2800   16
48.2900   22
48.3000   18
48.3100   11
48.3200   6
48.3300   14
48.3400   16
48.3500   15
48.3600   16
48.3700   9
48.3800   11
48.3900   13
48.4000   9
48.4100   7
48.4200   9
48.4300   15
48.4400   13
48.4500   13
48.4600   16
48.4700   20
48.4800   15
48.4900   9
48.5000   14
48.5100   10
48.5200   13
48.5300   14
48.5400   16
48.5500   14
48.5600   11
48.5700   12
48.5800   18
48.5900   11
48.6000   15
48.6100   15
48.6200   17
48.6300   7
48.6400   583
48.6500   10
48.6600   12
48.6700   11
48.6800   5
48.6900   11
48.7000   14
48.7100   7
48.7200   9
48.7300   10
48.7400   7
48.7500   7
48.7600   8
48.7700   11
48.7800   14
48.7900   14
48.8000   16
48.8100   14
48.8200   13
48.8300   17
48.8400   7
48.8500   10
48.8600   11
48.8700   16
48.8800   14
48.8900   19
48.9000   8
48.9100   10
48.9200   13
48.9300   11
48.9400   15
48.9500   16
48.9600   13
48.9700   11
48.9800   10
48.9900   13
49.0000   12
49.0100   16
49.0200   15
49.0300   15
49.0400   15
49.0500   12
49.0600   7
49.0700   15
49.0800   11
49.0900   12
49.1000   15
49.1100   9
49.1200   16
49.1300   12
49.1400   16
49.1500   18
49.1600   16
49.1700   11
49.1800   10
49.1900   18
49.2000   13
49.2100   10
49.2200   7
49.2300   26
49.2400   14
49.2500   13
49.2600   17
49.2700   17
49.2800   22
49.2900   12
49.3000   8
49.3100   8
49.3200   18
49.3300   12
49.3400   9
49.3500   9
49.3600   11
49.3700   9
49.3800   13
49.3900   10
49.4000   15
49.4100   12
49.4200   18
49.4300   8
49.4400   12
49.4500   8
49.4600   6
49.4700   15
49.4800   11
49.4900   14
49.5000   15
49.5100   18
49.5200   12
49.5300   4
49.5400   14
49.5500   12
49.5600   18
49.5700   9
49.5800   18
49.5900   15
49.6000   15
49.6100   14
49.6200   10
49.6300   7
49.6400   23
49.6500   13
49.6600   17
49.6700   14
49.6800   20
49.6900   24
49.7000   17
49.7100   9
49.7200   11
49.7300   11
49.7400   15
49.7500   11
49.7600   15
49.7700   10
49.7800   14
49.7900   12
49.8000   17
49.8100   13
49.8200   10
49.8300   9
49.8400   7
49.8500   21
49.8600   14
49.8700   14
49.8800   17
49.8900   14
49.9000   18
49.9100   18
49.9200   24
49.9300   16
49.9400   15
49.9500   10
49.9600   9
49.9700   10
49.9800   14
49.9900   16
50.0000   17
50.0100   9
50.0200   11
50.0300   13
50.0400   8
50.0500   12
50.0600   16
50.0700   9
50.0800   13
50.0900   19
50.1000   12
50.1100   13
50.1200   8
50.1300   10
50.1400   10
50.1500   13
50.1600   11
50.1700   510
50.1800   13
50.1900   12
50.2000   18
50.2100   12
50.2200   13
50.2300   16
50.2400   11
50.2500   16
50.2600   17
50.2700   18
50.2800   14
50.2900   14
50.3000   20
50.3100   11
50.3200   13
50.3300   9
50.3400   10
50.3500   8
50.3600   11
50.3700   14
50.3800   12
50.3900   10
50.4000   17
50.4100   7
50.4200   8
50.4300   13
50.4400   14
50.4500   11
50.4600   14
50.4700   11
50.4800   15
50.4900   13
50.5000   17
50.5100   11
50.5200   14
50.5300   10
50.5400   9
50.5500   10
50.5600   10
50.5700   14
50.5800   16
50.5900   18
50.6000   14
50.6100   13
50.6200   14
50.6300   10
50.6400   6
50.6500   8
50.6600   10
50.6700   11
50.6800   14
50.6900   13
50.7000   12
50.7100   13
50.7200   7
50.7300   8
50.7400   6
50.7500   15
50.7600   18
50.7700   10
50.7800   12
50.7900   12
50.8000   16
50.8100   10
50.8200   13
50.8300   11
50.8400   10
50.8500   9
50.8600   21
50.8700   18
50.8800   16
50.8900   10
50.9000   15
50.9100   18
50.9200   9
50.9300   10
50.9400   11
50.9500   8
50.9600   6
50.9700   11
50.9800   11
50.9900   3
51.0000   10
51.0100   13
51.0200   14
51.0300   10
51.0400   5
51.0500   573
51.0600   15
51.0700   14
51.0800   9
51.0900   8
51.1000   11
51.1100   14
51.1200   10
51.1300   15
51.1400   14
51.1500   9
51.1600   13
51.1700   16
51.1800   11
51.1900   15
51.2000   12
51.2100   18
51.2200   14
51.2300   13
51.2400   12
51.2500   18
51.2600   15
51.2700   17
51.2800   10
51.2900   9
51.3000   11
51.3100   7
51.3200   10
51.3300   8
51.3400   15
51.3500   8
51.3600   11
51.3700   15
51.3800   12
51.3900   7
51.4000   20
51.4100   15
51.4200   20
51.4300   10
51.4400   9
51.4500   12
51.4600   17
51.4700   11
51.4800   13
51.4900   13
51.5000   12
51.5100   8
51.5200   15
51.5300   13
51.5400   16
51.5500   21
51.5600   11
51.5700   10
51.5800   14
51.5900   18
51.6000   16
51.6100   14
51.6200   16
51.6300   11
51.6400   15
51.6500   10
51.6600   11
51.6700   16
51.6800   14
51.6900   21
51.7000   13
51.7100   15
51.7200   14
51.7300   10
51.7400   8
51.7500   11
51.7600   15
51.7700   14
51.7800   13
51.7900   18
51.8000   10
51.8100   13
51.8200   11
51.8300   8
51.8400   18
51.8500   10
51.8600   18
51.8700   15
51.8800   15
51.8900   11
51.9000   14
51.9100   10
51.9200   15
51.9300   16
51.9400   11
51.9500   16
51.9600   14
51.9700   9
51.9800   12
51.9900   11
52.0000   15
52.0100   11
52.0200   13
52.0300   13
52.0400   7
52.0500   4
52.0600   14
52.0700   16
52.0800   11
52.0900   12
52.1000   10
52.1100   5
52.1200   8
52.1300   11
52.1400   11
52.1500   6
52.1600   4
52.1700   15
52.1800   9
52.1900   12
52.2000   16
52.2100   11
52.2200   8
52.2300   6
52.2400   15
52.2500   15
52.2600   16
52.2700   7
52.2800   13
52.2900   15
52.3000   16
52.3100   8
52.3200   7
52.3300   9
52.3400   12
52.3500   10
52.3600   10
52.3700   7
52.3800   8
52.3900   9
52.4000   11
52.4100   14
52.4200   11
52.4300   16
52.4400   12
52.4500   9
52.4600   9
52.4700   11
52.4800   9
52.4900   12
52.5000   10
52.5100   13
52.5200   10
52.5300   13
52.5400   13
52.5500   15
52.5600   18
52.5700   14
52.5800   10
52.5900   7
52.6000   10
52.6100   8
52.6200   12
52.6300   9
52.6400   8
52.6500   11
52.6600   8
52.6700   11
52.6800   4
52.6900   11
52.7000   16
52.7100   19
52.7200   8
52.7300   20
52.7400   19
52.7500   12
52.7600   13
52.7700   14
52.7800   7
52.7900   10
52.8000   10
52.8100   11
52.8200   13
52.8300   14
52.8400   11
52.8500   13
52.8600   18
52.8700   20
52.8800   18
52.8900   24
52.9000   36
52.9100   28
52.9200   35
52.9300   47
52.9400   53
52.9500   68
52.9600   86
52.9700   94
52.9800   112
52.9900   112
53.0000   123
53.0100   106
53.0200   93
53.0300   85
53.0400   72
53.0500   57
53.0600   48
53.0700   35
53.0800   50
53.0900   40
53.1000   57
53.1100   58
53.1200   53
53.1300   74
53.1400   58
53.1500   67
53.1600   55
53.1700   42
53.1800   38
53.1900   26
53.2000   17
53.2100   18
53.2200   25
53.2300   13
53.2400   20
53.2500   20
53.2600   19
53.2700   18
53.2800   18
53.2900   12
53.3000   24
53.3100   7
53.3200   10
53.3300   12
53.3400   11
53.3500   10
53.3600   14
53.3700   13
53.3800   8
53.3900   19
53.4000   12
53.4100   15
53.4200   9
53.4300   11
53.4400   15
53.4500   13
53.4600   15
53.4700   10
53.4800   13
53.4900   12
53.5000   10
53.5100   14
53.5200   8
53.5300   4
53.5400   10
53.5500   9
53.5600   13
53.5700   16
53.5800   10
53.5900   15
53.6000   13
53.6100   13
53.6200   12
53.6300   17
53.6400   20
53.6500   11
53.6600   6
53.6700   7
53.6800   7
53.6900   8
53.7000   12
53.7100   8
53.7200   5
53.7300   22
53.7400   12
53.7500   11
53.7600   11
53.7700   11
53.7800   6
53.7900   17
53.8000   12
53.8100   13
53.8200   8
53.8300   7
53.8400   12
53.8500   12
53.8600   14
53.8700   13
53.8800   7
53.8900   12
53.9000   14
53.9100   13
53.9200   13
53.9300   15
53.9400   20
53.9500   17
53.9600   9
53.9700   9
53.9800   13
53.9900   14
54.0000   14
54.0100   12
54.0200   8
54.0300   9
54.0400   13
54.0500   19
54.0600   23
54.0700   13
54.0800   14
54.0900   17
54.1000   18
54.1100   20
54.1200   19
54.1300   15
54.1400   15
54.1500   14
54.1600   21
54.1700   17
54.1800   19
54.1900   15
54.2000   11
54.2100   14
54.2200   19
54.2300   16
54.2400   16
54.2500   10
54.2600   9
54.2700   17
54.2800   18
54.2900   14
54.3000   7
54.3100   8
54.3200   11
54.3300   6
54.3400   15
54.3500   16
54.3600   8
54.3700   10
54.3800   15
54.3900   11
54.4000   20
54.4100   19
54.4200   22
54.4300   23
54.4400   16
54.4500   11
54.4600   12
54.4700   17
54.4800   18
54.4900   6
54.5000   14
54.5100   19
54.5200   13
54.5300   15
54.5400   9
54.5500   6
54.5600   25
54.5700   25
54.5800   9
54.5900   13
54.6000   10
54.6100   24
54.6200   24
54.6300   14
54.6400   19
54.6500   15
54.6600   11
54.6700   19
54.6800   7
54.6900   11
54.7000   16
54.7100   22
54.7200   24
54.7300   15
54.7400   20
54.7500   14
54.7600   15
54.7700   12
54.7800   16
54.7900   17
54.8000   10
54.8100   10
54.8200   10
54.8300   14
54.8400   17
54.8500   13
54.8600   14
54.8700   21
54.8800   19
54.8900   15
54.9000   18
54.9100   16
54.9200   22
54.9300   22
54.9400   21
54.9500   10
54.9600   13
54.9700   18
54.9800   26
54.9900   30
55.0000   17
55.0100   9
55.0200   11
55.0300   14
55.0400   13
55.0500   15
55.0600   13
55.0700   13
55.0800   17
55.0900   9
55.1000   12
55.1100   6
55.1200   16
55.1300   10
55.1400   9
55.1500   8
55.1600   14
55.1700   11
55.1800   13
55.1900   9
55.2000   13
55.2100   23
55.2200   20
55.2300   25
55.2400   23
55.2500   20
55.2600   20
55.2700   20
55.2800   26
55.2900   26
55.3000   21
55.3100   16
55.3200   19
55.3300   22
55.3400   26
55.3500   13
55.3600   21
55.3700   31
55.3800   36
55.3900   33
55.4000   32
55.4100   35
55.4200   63
55.4300   74
55.4400   105
55.4500   148
55.4600   217
55.4700   314
55.4800   390
55.4900   427
55.5000   506
55.5100   459
55.5200   473
55.5300   391
55.5400   353
55.5500   298
55.5600   223
55.5700   149
55.5800   150
55.5900   142
55.6000   142
55.6100   158
55.6200   180
55.6300   196
55.6400   237
55.6500   252
55.6600   257
55.6700   237
55.6800   227
55.6900   211
55.7000   133
55.7100   138
55.7200   98
55.7300   85
55.7400   77
55.7500   51
55.7600   50
55.7700   47
55.7800   34
55.7900   38
55.8000   43
55.8100   33
55.8200   19
55.8300   18
55.8400   12
55.8500   28
55.8600   29
55.8700   17
55.8800   23
55.8900   11
55.9000   16
55.9100   23
55.9200   15
55.9300   10
55.9400   13
55.9500   17
55.9600   15
55.9700   11
55.9800   15
55.9900   17
56.0000   13
56.0100   17
56.0200   24
56.0300   10
56.0400   8
56.0500   12
56.0600   13
56.0700   17
56.0800   10
56.0900   15
56.1000   10
56.1100   9
56.1200   12
56.1300   11
56.1400   15
56.1500   14
56.1600   9
56.1700   9
56.1800   9
56.1900   10
56.2000   5
56.2100   14
56.2200   10
56.2300   6
56.2400   10
56.2500   10
56.2600   15
56.2700   9
56.2800   11
56.2900   11
56.3000   10
56.3100   14
56.3200   14
56.3300   10
56.3400   15
56.3500   3
56.3600   9
56.3700   10
56.3800   10
56.3900   7
56.4000   7
56.4100   4
56.4200   14
56.4300   13
56.4400   11
56.4500   12
56.4600   13
56.4700   14
56.4800   10
56.4900   11
56.5000   5
56.5100   8
56.5200   10
56.5300   13
56.5400   7
56.5500   8
56.5600   9
56.5700   7
56.5800   8
56.5900   8
56.6000   11
56.6100   15
56.6200   9
56.6300   10
56.6400   3
56.6500   10
56.6600   12
56.6700   7
56.6800   11
56.6900   14
56.7000   18
56.7100   14
56.7200   10
56.7300   8
56.7400   2
56.7500   12
56.7600   14
56.7700   7
56.7800   9
56.7900   8
56.8000   8
56.8100   12
56.8200   11
56.8300   11
56.8400   4
56.8500   13
56.8600   10
56.8700   8
56.8800   10
56.8900   9
56.9000   11
56.9100   14
56.9200   9
56.9300   13
56.9400   10
56.9500   545
56.9600   8
56.9700   4
56.9800   13
56.9900   10
57.0000   14
57.0100   2
57.0200   9
57.0300   9
57.0400   8
57.0500   10
57.0600   8
57.0700   10
57.0800   12
57.0900   8
57.1000   15
57.1100   20
57.1200   7
57.1300   10
57.1400   12
57.1500   11
57.1600   12
57.1700   8
57.1800   4
57.1900   6
57.2000   6
57.2100   8
57.2200   11
57.2300   12
57.2400   10
57.2500   10
57.2600   8
57.2700   10
57.2800   9
57.2900   12
57.3000   11
57.3100   10
57.3200   9
57.3300   10
57.3400   8
57.3500   7
57.3600   6
57.3700   6
57.3800   8
57.3900   2
57.4000   9
57.4100   9
57.4200   9
57.4300   10
57.4400   15
57.4500   10
57.4600   8
57.4700   9
57.4800   8
57.4900   9
57.5000   11
57.5100   16
57.5200   15
57.5300   7
57.5400   3
57.5500   14
57.5600   11
57.5700   14
57.5800   11
57.5900   6
57.6000   14
57.6100   13
57.6200   14
57.6300   8
57.6400   10
57.6500   11
57.6600   11
57.6700   10
57.6800   12
57.6900   11
57.7000   13
57.7100   8
57.7200   6
57.7300   9
57.7400   10
57.7500   10
57.7600   15
57.7700   8
57.7800   6
57.7900   7
57.8000   5
57.8100   8
57.8200   10
57.8300   10
57.8400   9
57.8500   7
57.8600   7
57.8700   18
57.8800   12
57.8900   15
57.9000   12
57.9100   15
57.9200   12
57.9300   10
57.9400   8
57.9500   11
57.9600   7
57.9700   9
57.9800   11
57.9900   11
58.0000   9
58.0100   10
58.0200   9
58.0300   12
58.0400   7
58.0500   10
58.0600   14
58.0700   16
58.0800   4
58.0900   6
58.1000   19
58.1100   14
58.1200   12
58.1300   4
58.1400   666
58.1500   15
58.1600   15
58.1700   17
58.1800   10
58.1900   8
58.2000   11
58.2100   10
58.2200   10
58.2300   13
58.2400   14
58.2500   15
58.2600   12
58.2700   5
58.2800   10
58.2900   13
58.3000   12
58.3100   18
58.3200   9
58.3300   10
58.3400   10
58.3500   11
58.3600   23
58.3700   14
58.3800   8
58.3900   13
58.4000   17
58.4100   11
58.4200   8
58.4300   11
58.4400   7
58.4500   9
58.4600   13
58.4700   10
58.4800   12
58.4900   7
58.5000   10
58.5100   8
58.5200   8
58.5300   10
58.5400   15
58.5500   12
58.5600   7
58.5700   10
58.5800   11
58.5900   13
58.6000   6
58.6100   9
58.6200   12
58.6300   10
58.6400   15
58.6500   16
58.6600   12
58.6700   12
58.6800   17
58.6900   6
58.7000   16
58.7100   7
58.7200   10
58.7300   10
58.7400   9
58.7500   6
58.7600   7
58.7700   7
58.7800   8
58.7900   8
58.8000   10
58.8100   13
58.8200   17
58.8300   10
58.8400   8
58.8500   11
58.8600   14
58.8700   7
58.8800   10
58.8900   5
58.9000   7
58.9100   10
58.9200   7
58.9300   6
58.9400   5
58.9500   9
58.9600   13
58.9700   12
58.9800   12
58.9900   15
59.0000   8
59.0100   9
59.0200   13
59.0300   10
59.0400   8
59.0500   8
59.0600   16
59.0700   13
59.0800   11
59.0900   9
59.1000   12
59.1100   10
59.1200   7
59.1300   10
59.1400   11
59.1500   7
59.1600   9
59.1700   10
59.1800   15
59.1900   12
59.2000   9
59.2100   13
59.2200   13
59.2300   14
59.2400   5
59.2500   11
59.2600   9
59.2700   9
59.2800   8
59.2900   6
59.3000   13
59.3100   4
59.3200   14
59.3300   11
59.3400   9
59.3500   9
59.3600   11
59.3700   8
59.3800   12
59.3900   13
59.4000   6
59.4100   5
59.4200   16
59.4300   8
59.4400   11
59.4500   15
59.4600   19
59.4700   4
59.4800   24
59.4900   8
59.5000   12
59.5100   14
59.5200   8
59.5300   10
59.5400   13
59.5500   12
59.5600   7
59.5700   16
59.5800   5
59.5900   18
59.6000   18
59.6100   7
59.6200   10
59.6300   15
59.6400   9
59.6500   7
59.6600   10
59.6700   10
59.6800   10
59.6900   10
59.7000   6
59.7100   9
59.7200   5
59.7300   11
59.7400   13
59.7500   15
59.7600   11
59.7700   13
59.7800   9
59.7900   8
59.8000   12
59.8100   16
59.8200   8
59.8300   4
59.8400   8
59.8500   5
59.8600   5
59.8700   6
59.8800   5
59.8900   6
59.9000   7
59.9100   6
59.9200   11
59.9300   5
59.9400   11
59.9500   6
59.9600   7
59.9700   9
59.9800   8
59.9900   8
60.0000   10
60.0100   15
60.0200   8
60.0300   10
60.0400   5
60.0500   11
60.0600   10
60.0700   7
60.0800   6
60.0900   7
60.1000   6
60.1100   9
60.1200   11
60.1300   6
60.1400   9
60.1500   12
60.1600   7
60.1700   5
60.1800   19
60.1900   8
60.2000   6
60.2100   7
60.2200   11
60.2300   14
60.2400   8
60.2500   7
60.2600   7
60.2700   8
60.2800   13
60.2900   11
60.3000   14
60.3100   8
60.3200   8
60.3300   3
60.3400   529
60.3500   12
60.3600   9
60.3700   8
60.3800   9
60.3900   11
60.4000   9
60.4100   5
60.4200   6
60.4300   7
60.4400   9
60.4500   9
60.4600   16
60.4700   2
60.4800   7
60.4900   10
60.5000   8
60.5100   8
60.5200   10
60.5300   12
60.5400   11
60.5500   16
60.5600   9
60.5700   7
60.5800   8
60.5900   6
60.6000   8
60.6100   9
60.6200   8
60.6300   5
60.6400   565
60.6500   12
60.6600   12
60.6700   18
60.6800   25
60.6900   12
60.7000   13
60.7100   13
60.7200   14
60.7300   11
60.7400   16
60.7500   10
60.7600   10
60.7700   10
60.7800   11
60.7900   14
60.8000   16
60.8100   6
60.8200   9
60.8300   12
60.8400   12
60.8500   8
60.8600   15
60.8700   21
60.8800   9
60.8900   8
60.9000   11
60.9100   15
60.9200   17
60.9300   8
60.9400   10
60.9500   7
60.9600   10
60.9700   7
60.9800   14
60.9900   8
61.0000   9
61.0100   6
61.0200   9
61.0300   5
61.0400   13
61.0500   15
61.0600   10
61.0700   12
61.0800   11
61.0900   12
61.1000   12
61.1100   13
61.1200   12
61.1300   15
61.1400   11
61.1500   14
61.1600   15
61.1700   6
61.1800   9
61.1900   10
61.2000   12
61.2100   11
61.2200   10
61.2300   4
61.2400   13
61.2500   19
61.2600   15
61.2700   9
61.2800   10
61.2900   4
61.3000   20
61.3100   17
61.3200   20
61.3300   20
61.3400   7
61.3500   15
61.3600   14
61.3700   14
61.3800   10
61.3900   8
61.4000   11
61.4100   11
61.4200   10
61.4300   9
61.4400   11
61.4500   12
61.4600   17
61.4700   17
61.4800   9
61.4900   13
61.5000   16
61.5100   18
61.5200   12
61.5300   12
61.5400   10
61.5500   11
61.5600   9
61.5700   13
61.5800   11
61.5900   10
61.6000   14
61.6100   11
61.6200   15
61.6300   15
61.6400   19
61.6500   23
61.6600   17
61.6700   17
61.6800   8
61.6900   8
61.7000   6
61.7100   8
61.7200   7
61.7300   12
61.7400   13
61.7500   13
61.7600   14
61.7700   9
61.7800   10
61.7900   14
61.8000   16
61.8100   16
61.8200   14
61.8300   14
61.8400   7
61.8500   12
61.8600   4
61.8700   12
61.8800   14
61.8900   9
61.9000   8
61.9100   11
61.9200   12
61.9300   17
61.9400   11
61.9500   12
61.9600   15
61.9700   9
61.9800   10
61.9900   15
62.0000   12
62.0100   7
62.0200   8
62.0300   8
62.0400   10
62.0500   14
62.0600   7
62.0700   22
62.0800   10
62.0900   8
62.1000   10
62.1100   11
62.1200   11
62.1300   9
62.1400   11
62.1500   12
62.1600   8
62.1700   11
62.1800   10
62.1900   11
62.2000   9
62.2100   9
62.2200   11
62.2300   4
62.2400   9
62.2500   13
62.2600   14
62.2700   14
62.2800   18
62.2900   9
62.3000   9
62.3100   11
62.3200   10
62.3300   8
62.3400   12
62.3500   13
62.3600   10
62.3700   12
62.3800   10
62.3900   8
62.4000   10
62.4100   9
62.4200   9
62.4300   13
62.4400   8
62.4500   12
62.4600   8
62.4700   7
62.4800   10
62.4900   11
62.5000   9
62.5100   13
62.5200   9
62.5300   12
62.5400   13
62.5500   9
62.5600   8
62.5700   12
62.5800   14
62.5900   11
62.6000   14
62.6100   11
62.6200   15
62.6300   14
62.6400   9
62.6500   10
62.6600   7
62.6700   10
62.6800   14
62.6900   8
62.7000   11
62.7100   7
62.7200   12
62.7300   6
62.7400   8
62.7500   10
62.7600   15
62.7700   13
62.7800   11
62.7900   7
62.8000   10
62.8100   14
62.8200   14
62.8300   15
62.8400   19
62.8500   13
62.8600   6
62.8700   13
62.8800   11
62.8900   7
62.9000   9
62.9100   10
62.9200   13
62.9300   12
62.9400   18
62.9500   12
62.9600   13
62.9700   3
62.9800   14
62.9900   17
63.0000   14
63.0100   10
63.0200   15
63.0300   13
63.0400   14
63.0500   12
63.0600   17
63.0700   11
63.0800   12
63.0900   15
63.1000   16
63.1100   14
63.1200   17
63.1300   12
63.1400   14
63.1500   16
63.1600   14
63.1700   14
63.1800   21
63.1900   13
63.2000   6
63.2100   7
63.2200   12
63.2300   16
63.2400   15
63.2500   17
63.2600   18
63.2700   13
63.2800   10
63.2900   10
63.3000   7
63.3100   7
63.3200   10
63.3300   8
63.3400   12
63.3500   12
63.3600   13
63.3700   11
63.3800   7
63.3900   6
63.4000   8
63.4100   15
63.4200   15
63.4300   12
63.4400   15
63.4500   16
63.4600   13
63.4700   9
63.4800   11
63.4900   14
63.5000   7
63.5100   7
63.5200   9
63.5300   11
63.5400   6
63.5500   19
63.5600   11
63.5700   9
63.5800   11
63.5900   13
63.6000   19
63.6100   9
63.6200   7
63.6300   7
63.6400   9
63.6500   10
63.6600   11
63.6700   8
63.6800   11
63.6900   9
63.7000   12
63.7100   12
63.7200   17
63.7300   15
63.7400   16
63.7500   15
63.7600   17
63.7700   14
63.7800   11
63.7900   14
63.8000   18
63.8100   20
63.8200   9
63.8300   10
63.8400   11
63.8500   12
63.8600   15
63.8700   17
63.8800   11
63.8900   11
63.9000   15
63.9100   19
63.9200   20
63.9300   16
63.9400   24
63.9500   9
63.9600   7
63.9700   8
63.9800   8
63.9900   15
64.0000   14
64.0100   21
64.0200   23
64.0300   9
64.0400   6
64.0500   19
64.0600   21
64.0700   26
64.0800   27
64.0900   27
64.1000   14
64.1100   16
64.1200   24
64.1300   19
64.1400   18
64.1500   22
64.1600   22
64.1700   15
64.1800   15
64.1900   21
64.2000   17
64.2100   22
64.2200   11
64.2300   22
64.2400   17
64.2500   16
64.2600   17
64.2700   20
64.2800   25
64.2900   22
64.3000   24
64.3100   14
64.3200   20
64.3300   24
64.3400   15
64.3500   21
64.3600   18
64.3700   20
64.3800   21
64.3900   19
64.4000   23
64.4100   29
64.4200   18
64.4300   23
64.4400   19
64.4500   22
64.4600   22
64.4700   25
64.4800   20
64.4900   13
64.5000   19
64.5100   17
64.5200   19
64.5300   24
64.5400   19
64.5500   21
64.5600   24
64.5700   16
64.5800   23
64.5900   24
64.6000   21
64.6100   16
64.6200   22
64.6300   18
64.6400   18
64.6500   23
64.6600   26
64.6700   16
64.6800   21
64.6900   17
64.7000   22
64.7100   18
64.7200   26
64.7300   39
64.7400   22
64.7500   20
64.7600   19
64.7700   19
64.7800   18
64.7900   22
64.8000   26
64.8100   30
64.8200   22
64.8300   23
64.8400   18
64.8500   25
64.8600   26
64.8700   28
64.8800   34
64.8900   35
64.9000   21
64.9100   16
64.9200   30
64.9300   23
64.9400   36
64.9500   38
64.9600   42
64.9700   33
64.9800   27
64.9900   31
65.0000   38
65.0100   27
65.0200   32
65.0300   44
65.0400   29
65.0500   42
65.0600   39
65.0700   33
65.0800   46
65.0900   45
65.1000   50
65.1100   37
65.1200   37
65.1300   35
65.1400   50
65.1500   48
65.1600   55
65.1700   67
65.1800   66
65.1900   96
65.2000   111
65.2100   112
65.2200   107
65.2300   122
65.2400   135
65.2500   125
65.2600   144
65.2700   139
65.2800   179
65.2900   211
65.3000   295
65.3100   395
65.3200   515
65.3300   695
65.3400   875
65.3500   1079
65.3600   1183
65.3700   1272
65.3800   1202
65.3900   1027
65.4000   891
65.4100   748
65.4200   610
65.4300   451
65.4400   345
65.4500   296
65.4600   218
65.4700   213
65.4800   218
65.4900   223
65.5000   212
65.5100   280
65.5200   373
65.5300   477
65.5400   480
65.5500   553
65.5600   580
65.5700   544
65.5800   426
65.5900   379
65.6000   328
65.6100   233
65.6200   177
65.6300   140
65.6400   98
65.6500   82
65.6600   67
65.6700   65
65.6800   51
65.6900   42
65.7000   49
65.7100   41
65.7200   38
65.7300   32
65.7400   26
65.7500   33
65.7600   20
65.7700   24
65.7800   32
65.7900   24
65.8000   35
65.8100   29
65.8200   21
65.8300   28
65.8400   22
65.8500   21
65.8600   13
65.8700   19
65.8800   19
65.8900   20
65.9000   20
65.9100   17
65.9200   15
65.9300   14
65.9400   21
65.9500   17
65.9600   18
65.9700   19
65.9800   19
65.9900   18
66.0000   13
66.0100   16
66.0200   21
66.0300   17
66.0400   20
66.0500   15
66.0600   19
66.0700   17
66.0800   19
66.0900   14
66.1000   16
66.1100   13
66.1200   14
66.1300   12
66.1400   13
66.1500   13
66.1600   18
66.1700   18
66.1800   19
66.1900   24
66.2000   16
66.2100   20
66.2200   17
66.2300   16
66.2400   20
66.2500   18
66.2600   10
66.2700   10
66.2800   11
66.2900   26
66.3000   15
66.3100   20
66.3200   13
66.3300   19
66.3400   22
66.3500   18
66.3600   11
66.3700   11
66.3800   16
66.3900   14
66.4000   11
66.4100   11
66.4200   10
66.4300   14
66.4400   20
66.4500   11
66.4600   18
66.4700   5
66.4800   19
66.4900   21
66.5000   16
66.5100   13
66.5200   9
66.5300   9
66.5400   22
66.5500   10
66.5600   13
66.5700   16
66.5800   15
66.5900   9
66.6000   18
66.6100   11
66.6200   13
66.6300   12
66.6400   11
66.6500   13
66.6600   14
66.6700   19
66.6800   13
66.6900   9
66.7000   12
66.7100   7
66.7200   24
66.7300   12
66.7400   7
66.7500   14
66.7600   16
66.7700   11
66.7800   16
66.7900   12
66.8000   13
66.8100   14
66.8200   20
66.8300   14
66.8400   16
66.8500   14
66.8600   12
66.8700   15
66.8800   14
66.8900   12
66.9000   18
66.9100   10
66.9200   19
66.9300   12
66.9400   18
66.9500   18
66.9600   12
66.9700   13
66.9800   15
66.9900   14
67.0000   13
67.0100   17
67.0200   6
67.0300   21
67.0400   9
67.0500   13
67.0600   10
67.0700   14
67.0800   14
67.0900   9
67.1000   11
67.1100   14
67.1200   13
67.1300   11
67.1400   9
67.1500   13
67.1600   18
67.1700   15
67.1800   11
67.1900   8
67.2000   11
67.2100   9
67.2200   12
67.2300   11
67.2400   15
67.2500   5
67.2600   10
67.2700   11
67.2800   12
67.2900   16
67.3000   16
67.3100   19
67.3200   13
67.3300   19
67.3400   13
67.3500   6
67.3600   15
67.3700   11
67.3800   15
67.3900   13
67.4000   13
67.4100   14
67.4200   13
67.4300   14
67.4400   15
67.4500   13
67.4600   10
67.4700   12
67.4800   11
67.4900   12
67.5000   11
67.5100   10
67.5200   9
67.5300   7
67.5400   11
67.5500   12
67.5600   11
67.5700   16
67.5800   18
67.5900   20
67.6000   8
67.6100   8
67.6200   8
67.6300   17
67.6400   19
67.6500   17
67.6600   15
67.6700   17
67.6800   9
67.6900   11
67.7000   16
67.7100   11
67.7200   7
67.7300   13
67.7400   10
67.7500   15
67.7600   13
67.7700   12
67.7800   15
67.7900   19
67.8000   13
67.8100   13
67.8200   13
67.8300   6
67.8400   9
67.8500   8
67.8600   11
67.8700   11
67.8800   16
67.8900   18
67.9000   11
67.9100   7
67.9200   7
67.9300   13
67.9400   14
67.9500   7
67.9600   6
67.9700   9
67.9800   9
67.9900   12
68.0000   13
68.0100   9
68.0200   12
68.0300   15
68.0400   11
68.0500   7
68.0600   10
68.0700   7
68.0800   10
68.0900   725
68.1000   12
68.1100   9
68.1200   8
68.1300   7
68.1400   8
68.1500   9
68.1600   12
68.1700   12
68.1800   9
68.1900   10
68.2000   12
68.2100   13
68.2200   10
68.2300   9
68.2400   11
68.2500   13
68.2600   11
68.2700   14
68.2800   14
68.2900   17
68.3000   10
68.3100   14
68.3200   17
68.3300   12
68.3400   13
68.3500   10
68.3600   14
68.3700   17
68.3800   15
68.3900   16
68.4000   16
68.4100   12
68.4200   15
68.4300   7
68.4400   4
68.4500   13
68.4600   18
68.4700   14
68.4800   9
68.4900   13
68.5000   10
68.5100   11
68.5200   12
68.5300   10
68.5400   14
68.5500   12
68.5600   15
68.5700   16
68.5800   4
68.5900   12
68.6000   18
68.6100   18
68.6200   11
68.6300   8
68.6400   11
68.6500   13
68.6600   3
68.6700   9
68.6800   12
68.6900   15
68.7000   9
68.7100   13
68.7200   18
68.7300   10
68.7400   9
68.7500   18
68.7600   15
68.7700   13
68.7800   9
68.7900   14
68.8000   14
68.8100   11
68.8200   8
68.8300   10
68.8400   13
68.8500   19
68.8600   10
68.8700   12
68.8800   12
68.8900   13
68.9000   8
68.9100   12
68.9200   14
68.9300   13
68.9400   15
68.9500   15
68.9600   12
68.9700   7
68.9800   17
68.9900   14
69.0000   7
69.0100   14
69.0200   8
69.0300   11
69.0400   16
69.0500   10
69.0600   8
69.0700   9
69.0800   12
69.0900   12
69.1000   14
69.1100   11
69.1200   14
69.1300   12
69.1400   14
69.1500   18
69.1600   12
69.1700   13
69.1800   15
69.1900   21
69.2000   12
69.2100   15
69.2200   13
69.2300   6
69.2400   12
69.2500   12
69.2600   16
69.2700   12
69.2800   15
69.2900   15
69.3000   15
69.3100   5
69.3200   613
69.3300   10
69.3400   11
69.3500   14
69.3600   10
69.3700   13
69.3800   10
69.3900   8
69.4000   4
69.4100   13
69.4200   14
69.4300   14
69.4400   20
69.4500   12
69.4600   10
69.4700   3
69.4800   24
69.4900   12
69.5000   11
69.5100   11
69.5200   14
69.5300   11
69.5400   7
69.5500   15
69.5600   10
69.5700   11
69.5800   10
69.5900   11
69.6000   10
69.6100   5
69.6200   10
69.6300   15
69.6400   14
69.6500   14
69.6600   11
69.6700   5
69.6800   7
69.6900   6
69.7000   542
69.7100   11
69.7200   11
69.7300   11
69.7400   8
69.7500   8
69.7600   9
69.7700   12
69.7800   14
69.7900   10
69.8000   13
69.8100   12
69.8200   13
69.8300   14
69.8400   15
69.8500   16
69.8600   13
69.8700   9
69.8800   11
69.8900   6
69.9000   9
69.9100   9
69.9200   9
69.9300   13
69.9400   6
69.9500   5
69.9600   9
69.9700   7
69.9800   9
69.9900   11
70.0000   12
70.0100   1
70.0200   11
70.0300   8
70.0400   10
70.0500   12
70.0600   16
70.0700   18
70.0800   19
70.0900   13
70.1000   15
70.1100   7
70.1200   11
70.1300   16
70.1400   13
70.1500   9
70.1600   6
70.1700   9
70.1800   12
70.1900   8
70.2000   16
70.2100   21
70.2200   5
70.2300   15
70.2400   15
70.2500   12
70.2600   10
70.2700   13
70.2800   16
70.2900   11
70.3000   11
70.3100   10
70.3200   13
70.3300   14
70.3400   15
70.3500   8
70.3600   10
70.3700   13
70.3800   16
70.3900   12
70.4000   17
70.4100   15
70.4200   15
70.4300   12
70.4400   8
70.4500   8
70.4600   11
70.4700   13
70.4800   12
70.4900   13
70.5000   12
70.5100   16
70.5200   10
70.5300   7
70.5400   9
70.5500   8
70.5600   12
70.5700   10
70.5800   13
70.5900   16
70.6000   16
70.6100   9
70.6200   9
70.6300   11
70.6400   10
70.6500   8
70.6600   9
70.6700   10
70.6800   8
70.6900   6
70.7000   18
70.7100   11
70.7200   11
70.7300   8
70.7400   10
70.7500   14
70.7600   14
70.7700   14
70.7800   11
70.7900   14
70.8000   15
70.8100   11
70.8200   12
70.8300   18
70.8400   18
70.8500   14
70.8600   13
70.8700   19
70.8800   16
70.8900   12
70.9000   11
70.9100   16
70.9200   15
70.9300   14
70.9400   10
70.9500   12
70.9600   14
70.9700   16
70.9800   11
70.9900   12
71.0000   9
71.0100   9
71.0200   9
71.0300   11
71.0400   9
71.0500   8
71.0600   11
71.0700   16
71.0800   8
71.0900   14
71.1000   17
71.1100   15
71.1200   8
71.1300   13
71.1400   19
71.1500   21
71.1600   12
71.1700   15
71.1800   11
71.1900   10
71.2000   9
71.2100   11
71.2200   8
71.2300   12
71.2400   17
71.2500   16
71.2600   14
71.2700   14
71.2800   21
71.2900   9
71.3000   13
71.3100   9
71.3200   13
71.3300   19
71.3400   15
71.3500   22
71.3600   12
71.3700   17
71.3800   15
71.3900   16
71.4000   10
71.4100   11
71.4200   11
71.4300   7
71.4400   13
71.4500   6
71.4600   7
71.4700   13
71.4800   16
71.4900   9
71.5000   12
71.5100   16
71.5200   15
71.5300   10
71.5400   11
71.5500   14
71.5600   14
71.5700   10
71.5800   16
71.5900   18
71.6000   17
71.6100   21
71.6200   11
71.6300   11
71.6400   12
71.6500   15
71.6600   19
71.6700   8
71.6800   11
71.6900   16
71.7000   6
71.7100   9
71.7200   623
71.7300   12
71.7400   15
71.7500   14
71.7600   15
71.7700   18
71.7800   14
71.7900   16
71.8000   14
71.8100   13
71.8200   17
71.8300   14
71.8400   12
71.8500   12
71.8600   16
71.8700   23
71.8800   18
71.8900   8
71.9000   13
71.9100   12
71.9200   12
71.9300   13
71.9400   13
71.9500   18
71.9600   19
71.9700   8
71.9800   11
71.9900   10
72.0000   15
72.0100   6
72.0200   16
72.0300   17
72.0400   11
72.0500   15
72.0600   14
72.0700   8
72.0800   11
72.0900   14
72.1000   14
72.1100   21
72.1200   16
72.1300   17
72.1400   19
72.1500   11
72.1600   12
72.1700   18
72.1800   11
72.1900   16
72.2000   13
72.2100   16
72.2200   14
72.2300   12
72.2400   16
72.2500   17
72.2600   5
72.2700   18
72.2800   22
72.2900   11
72.3000   16
72.3100   9
72.3200   12
72.3300   15
72.3400   14
72.3500   16
72.3600   19
72.3700   11
72.3800   15
72.3900   14
72.4000   15
72.4100   10
72.4200   12
72.4300   15
72.4400   16
72.4500   7
72.4600   9
72.4700   11
72.4800   14
72.4900   10
72.5000   12
72.5100   10
72.5200   9
72.5300   12
72.5400   10
72.5500   12
72.5600   15
72.5700   12
72.5800   14
72.5900   12
72.6000   9
72.6100   13
72.6200   13
72.6300   11
72.6400   7
72.6500   8
72.6600   10
72.6700   5
72.6800   6
72.6900   15
72.7000   11
72.7100   11
72.7200   12
72.7300   15
72.7400   13
72.7500   13
72.7600   7
72.7700   8
72.7800   9
72.7900   11
72.8000   7
72.8100   14
72.8200   8
72.8300   11
72.8400   5
72.8500   12
72.8600   10
72.8700   12
72.8800   17
72.8900   17
72.9000   9
72.9100   10
72.9200   10
72.9300   14
72.9400   16
72.9500   11
72.9600   9
72.9700   9
72.9800   12
72.9900   15
73.0000   13
73.0100   11
73.0200   14
73.0300   9
73.0400   7
73.0500   840
73.0600   5
73.0700   22
73.0800   14
73.0900   14
73.1000   13
73.1100   11
73.1200   13
73.1300   19
73.1400   17
73.1500   14
73.1600   18
73.1700   13
73.1800   11
73.1900   13
73.2000   11
73.2100   13
73.2200   13
73.2300   12
73.2400   15
73.2500   13
73.2600   11
73.2700   14
73.2800   21
73.2900   11
73.3000   13
73.3100   15
73.3200   21
73.3300   13
73.3400   11
73.3500   17
73.3600   16
73.3700   13
73.3800   19
73.3900   19
73.4000   16
73.4100   15
73.4200   11
73.4300   11
73.4400   14
73.4500   11
73.4600   13
73.4700   16
73.4800   16
73.4900   11
73.5000   14
73.5100   16
73.5200   20
73.5300   13
73.5400   13
73.5500   17
73.5600   20
73.5700   23
73.5800   19
73.5900   21
73.6000   13
73.6100   16
73.6200   18
73.6300   13
73.6400   13
73.6500   17
73.6600   16
73.6700   16
73.6800   18
73.6900   22
73.7000   21
73.7100   19
73.7200   18
73.7300   12
73.7400   17
73.7500   20
73.7600   19
73.7700   15
73.7800   12
73.7900   18
73.8000   21
73.8100   15
73.8200   14
73.8300   16
73.8400   17
73.8500   17
73.8600   16
73.8700   17
73.8800   25
73.8900   13
73.9000   18
73.9100   15
73.9200   14
73.9300   19
73.9400   26
73.9500   11
73.9600   28
73.9700   15
73.9800   13
73.9900   17
74.0000   33
74.0100   29
74.0200   40
74.0300   20
74.0400   32
74.0500   40
74.0600   35
74.0700   43
74.0800   38
74.0900   43
74.1000   33
74.1100   43
74.1200   48
74.1300   37
74.1400   45
74.1500   27
74.1600   29
74.1700   42
74.1800   51
74.1900   54
74.2000   79
74.2100   63
74.2200   93
74.2300   95
74.2400   101
74.2500   135
74.2600   123
74.2700   148
74.2800   188
74.2900   203
74.3000   220
74.3100   221
74.3200   214
74.3300   251
74.3400   264
74.3500   251
74.3600   324
74.3700   335
74.3800   411
74.3900   508
74.4000   612
74.4100   729
74.4200   867
74.4300   856
74.4400   830
74.4500   759
74.4600   577
74.4700   489
74.4800   382
74.4900   299
74.5000   238
74.5100   181
74.5200   192
74.5300   182
74.5400   155
74.5500   176
74.5600   153
74.5700   152
74.5800   165
74.5900   179
74.6000   228
74.6100   272
74.6200   291
74.6300   367
74.6400   444
74.6500   432
74.6600   443
74.6700   347
74.6800   284
74.6900   228
74.7000   156
74.7100   138
74.7200   104
74.7300   80
74.7400   81
74.7500   52
74.7600   55
74.7700   40
74.7800   43
74.7900   46
74.8000   38
74.8100   41
74.8200   32
74.8300   36
74.8400   29
74.8500   23
74.8600   26
74.8700   26
74.8800   25
74.8900   19
74.9000   25
74.9100   23
74.9200   17
74.9300   22
74.9400   18
74.9500   26
74.9600   35
74.9700   23
74.9800   24
74.9900   9
75.0000   16
75.0100   23
75.0200   23
75.0300   19
75.0400   14
75.0500   19
75.0600   23
75.0700   25
75.0800   20
75.0900   20
75.1000   15
75.1100   15
75.1200   19
75.1300   7
75.1400   24
75.1500   13
75.1600   15
75.1700   21
75.1800   11
75.1900   12
75.2000   9
75.2100   19
75.2200   17
75.2300   25
75.2400   11
75.2500   13
75.2600   16
75.2700   20
75.2800   20
75.2900   11
75.3000   5
75.3100   14
75.3200   14
75.3300   14
75.3400   14
75.3500   12
75.3600   14
75.3700   11
75.3800   27
75.3900   10
75.4000   12
75.4100   9
75.4200   11
75.4300   11
75.4400   12
75.4500   17
75.4600   9
75.4700   12
75.4800   17
75.4900   8
75.5000   10
75.5100   11
75.5200   8
75.5300   10
75.5400   14
75.5500   14
75.5600   13
75.5700   11
75.5800   15
75.5900   15
75.6000   14
75.6100   9
75.6200   11
75.6300   10
75.6400   6
75.6500   9
75.6600   12
75.6700   13
75.6800   15
75.6900   19
75.7000   15
75.7100   20
75.7200   20
75.7300   19
75.7400   12
75.7500   12
75.7600   14
75.7700   15
75.7800   16
75.7900   12
75.8000   13
75.8100   14
75.8200   9
75.8300   7
75.8400   7
75.8500   9
75.8600   10
75.8700   11
75.8800   11
75.8900   11
75.9000   14
75.9100   15
75.9200   11
75.9300   14
75.9400   16
75.9500   9
75.9600   8
75.9700   9
75.9800   10
75.9900   8
76.0000   12
76.0100   13
76.0200   11
76.0300   15
76.0400   11
76.0500   12
76.0600   6
76.0700   12
76.0800   9
76.0900   13
76.1000   19
76.1100   22
76.1200   7
76.1300   9
76.1400   13
76.1500   12
76.1600   9
76.1700   12
76.1800   15
76.1900   10
76.2000   13
76.2100   13
76.2200   11
76.2300   12
76.2400   12
76.2500   11
76.2600   9
76.2700   10
76.2800   11
76.2900   7
76.3000   5
76.3100   11
76.3200   4
76.3300   14
76.3400   13
76.3500   11
76.3600   9
76.3700   6
76.3800   9
76.3900   11
76.4000   13
76.4100   11
76.4200   14
76.4300   15
76.4400   6
76.4500   5
76.4600   18
76.4700   15
76.4800   12
76.4900   12
76.5000   11
76.5100   15
76.5200   12
76.5300   10
76.5400   12
76.5500   7
76.5600   5
76.5700   15
76.5800   15
76.5900   19
76.6000   9
76.6100   14
76.6200   16
76.6300   8
76.6400   10
76.6500   12
76.6600   4
76.6700   11
76.6800   14
76.6900   9
76.7000   6
76.7100   6
76.7200   8
76.7300   7
76.7400   10
76.7500   14
76.7600   9
76.7700   9
76.7800   11
76.7900   7
76.8000   8
76.8100   8
76.8200   8
76.8300   10
76.8400   10
76.8500   8
76.8600   10
76.8700   8
76.8800   6
76.8900   8
76.9000   11
76.9100   7
76.9200   9
76.9300   11
76.9400   15
76.9500   20
76.9600   13
76.9700   7
76.9800   10
76.9900   9
77.0000   11
77.0100   15
77.0200   12
77.0300   17
77.0400   10
77.0500   15
77.0600   5
77.0700   6
77.0800   11
77.0900   7
77.1000   12
77.1100   13
77.1200   15
77.1300   12
77.1400   7
77.1500   10
77.1600   10
77.1700   14
77.1800   8
77.1900   9
77.2000   11
77.2100   5
77.2200   14
77.2300   6
77.2400   14
77.2500   10
77.2600   11
77.2700   10
77.2800   12
77.2900   16
77.3000   4
77.3100   10
77.3200   14
77.3300   11
77.3400   5
77.3500   503
77.3600   15
77.3700   10
77.3800   13
77.3900   4
77.4000   11
77.4100   5
77.4200   11
77.4300   9
77.4400   5
77.4500   6
77.4600   11
77.4700   10
77.4800   11
77.4900   12
77.5000   8
77.5100   5
77.5200   6
77.5300   18
77.5400   13
77.5500   11
77.5600   15
77.5700   7
77.5800   9
77.5900   8
77.6000   10
77.6100   15
77.6200   9
77.6300   9
77.6400   9
77.6500   13
77.6600   11
77.6700   9
77.6800   13
77.6900   11
77.7000   9
77.7100   10
77.7200   12
77.7300   18
77.7400   11
77.7500   15
77.7600   14
77.7700   7
77.7800   5
77.7900   12
77.8000   9
77.8100   12
77.8200   5
77.8300   14
77.8400   8
77.8500   8
77.8600   10
77.8700   6
77.8800   8
77.8900   8
77.9000   11
77.9100   13
77.9200   16
77.9300   9
77.9400   7
77.9500   10
77.9600   10
77.9700   8
77.9800   12
77.9900   11
78.0000   10
78.0100   12
78.0200   18
78.0300   8
78.0400   10
78.0500   11
78.0600   8
78.0700   9
78.0800   10
78.0900   15
78.1000   11
78.1100   14
78.1200   9
78.1300   13
78.1400   12
78.1500   10
78.1600   14
78.1700   6
78.1800   10
78.1900   11
78.2000   10
78.2100   12
78.2200   15
78.2300   5
78.2400   11
78.2500   11
78.2600   13
78.2700   10
78.2800   15
78.2900   11
78.3000   7
78.3100   6
78.3200   16
78.3300   8
78.3400   11
78.3500   12
78.3600   9
78.3700   13
78.3800   9
78.3900   15
78.4000   11
78.4100   11
78.4200   8
78.4300   17
78.4400   6
78.4500   8
78.4600   8
78.4700   11
78.4800   11
78.4900   12
78.5000   6
78.5100   10
78.5200   13
78.5300   17
78.5400   6
78.5500   9
78.5600   11
78.5700   13
78.5800   11
78.5900   9
78.6000   8
78.6100   11
78.6200   16
78.6300   11
78.6400   9
78.6500   13
78.6600   15
78.6700   9
78.6800   6
78.6900   7
78.7000   10
78.7100   8
78.7200   10
78.7300   10
78.7400   12
78.7500   15
78.7600   9
78.7700   9
78.7800   7
78.7900   6
78.8000   8
78.8100   9
78.8200   13
78.8300   9
78.8400   11
78.8500   14
78.8600   12
78.8700   15
78.8800   14
78.8900   10
78.9000   6
78.9100   12
78.9200   9
78.9300   11
78.9400   13
78.9500   13
78.9600   15
78.9700   14
78.9800   14
78.9900   18
79.0000   10
79.0100   7
79.0200   14
79.0300   10
79.0400   12
79.0500   15
79.0600   7
79.0700   9
79.0800   10
79.0900   13
79.1000   12
79.1100   10
79.1200   11
79.1300   10
79.1400   14
79.1500   7
79.1600   10
79.1700   13
79.1800   12
79.1900   10
79.2000   11
79.2100   11
79.2200   17
79.2300   8
79.2400   9
79.2500   9
79.2600   11
79.2700   10
79.2800   9
79.2900   8
79.3000   14
79.3100   7
79.3200   8
79.3300   9
79.3400   10
79.3500   15
79.3600   12
79.3700   14
79.3800   11
79.3900   9
79.4000   13
79.4100   11
79.4200   15
79.4300   12
79.4400   10
79.4500   12
79.4600   10
79.4700   7
79.4800   10
79.4900   10
79.5000   8
79.5100   9
79.5200   13
79.5300   7
79.5400   9
79.5500   8
79.5600   6
79.5700   4
79.5800   6
79.5900   3
79.6000   8
79.6100   13
79.6200   13
79.6300   11
79.6400   15
79.6500   11
79.6600   14
79.6700   8
79.6800   11
79.6900   15
79.7000   7
79.7100   10
79.7200   11
79.7300   10
79.7400   13
79.7500   4
79.7600   8
79.7700   10
79.7800   6
79.7900   14
79.8000   7
79.8100   8
79.8200   11
79.8300   13
79.8400   19
79.8500   7
79.8600   10
79.8700   13
79.8800   8
79.8900   10
79.9000   12
79.9100   6
79.9200   9
79.9300   9
79.9400   13
79.9500   10
79.9600   7
79.9700   10
79.9800   9
79.9900   9
80.0000   12
80.0100   12
80.0200   12
80.0300   11
80.0400   11
80.0500   6
80.0600   6
80.0700   12
80.0800   12
80.0900   16
80.1000   14
80.1100   11
80.1200   12
80.1300   10
80.1400   15
80.1500   9
80.1600   6
80.1700   7
80.1800   7
80.1900   9
80.2000   7
80.2100   10
80.2200   13
80.2300   12
80.2400   10
80.2500   15
80.2600   9
80.2700   12
80.2800   7
80.2900   800
80.3000   14
80.3100   16
80.3200   13
80.3300   17
80.3400   9
80.3500   12
80.3600   12
80.3700   6
80.3800   9
80.3900   13
80.4000   9
80.4100   9
80.4200   12
80.4300   7
80.4400   6
80.4500   15
80.4600   12
80.4700   13
80.4800   14
80.4900   14
80.5000   7
80.5100   8
80.5200   5
80.5300   7
80.5400   9
80.5500   9
80.5600   7
80.5700   11
80.5800   10
80.5900   8
80.6000   11
80.6100   11
80.6200   16
80.6300   15
80.6400   12
80.6500   15
80.6600   21
80.6700   10
80.6800   8
80.6900   4
80.7000   5
80.7100   7
80.7200   9
80.7300   10
80.7400   8
80.7500   14
80.7600   12
80.7700   13
80.7800   8
80.7900   12
80.8000   16
80.8100   12
80.8200   18
80.8300   11
80.8400   14
80.8500   10
80.8600   11
80.8700   7
80.8800   11
80.8900   15
80.9000   12
80.9100   16
80.9200   11
80.9300   13
80.9400   15
80.9500   10
80.9600   7
80.9700   9
80.9800   5
80.9900   9
81.0000   10
81.0100   8
81.0200   10
81.0300   11
81.0400   12
81.0500   12
81.0600   16
81.0700   10
81.0800   13
81.0900   5
81.1000   17
81.1100   9
81.1200   9
81.1300   13
81.1400   9
81.1500   6
81.1600   9
81.1700   9
81.1800   12
81.1900   13
81.2000   12
81.2100   9
81.2200   9
81.2300   8
81.2400   12
81.2500   15
81.2600   19
81.2700   8
81.2800   5
81.2900   6
81.3000   21
81.3100   19
81.3200   12
81.3300   18
81.3400   9
81.3500   12
81.3600   17
81.3700   15
81.3800   17
81.3900   16
81.4000   11
81.4100   7
81.4200   645
81.4300   16
81.4400   11
81.4500   13
81.4600   17
81.4700   11
81.4800   16
81.4900   19
81.5000   22
81.5100   9
81.5200   11
81.5300   16
81.5400   12
81.5500   14
81.5600   15
81.5700   19
81.5800   17
81.5900   16
81.6000   10
81.6100   9
81.6200   13
81.6300   18
81.6400   15
81.6500   14
81.6600   19
81.6700   16
81.6800   12
81.6900   10
81.7000   11
81.7100   11
81.7200   5
81.7300   6
81.7400   12
81.7500   6
81.7600   9
81.7700   11
81.7800   10
81.7900   10
81.8000   11
81.8100   11
81.8200   16
81.8300   15
81.8400   10
81.8500   8
81.8600   10
81.8700   15
81.8800   14
81.8900   10
81.9000   3
81.9100   616
81.9200   13
81.9300   10
81.9400   12
81.9500   8
81.9600   17
81.9700   20
81.9800   11
81.9900   15
82.0000   11
82.0100   10
82.0200   12
82.0300   15
82.0400   10
82.0500   11
82.0600   12
82.0700   11
82.0800   13
82.0900   6
82.1000   9
82.1100   8
82.1200   6
82.1300   9
82.1400   12
82.1500   10
82.1600   14
82.1700   11
82.1800   8
82.1900   9
82.2000   9
82.2100   6
82.2200   5
82.2300   7
82.2400   9
82.2500   10
82.2600   12
82.2700   10
82.2800   14
82.2900   9
82.3000   11
82.3100   11
82.3200   13
82.3300   17
82.3400   10
82.3500   11
82.3600   13
82.3700   10
82.3800   10
82.3900   10
82.4000   9
82.4100   7
82.4200   11
82.4300   7
82.4400   14
82.4500   11
82.4600   14
82.4700   17
82.4800   9
82.4900   9
82.5000   12
82.5100   16
82.5200   5
82.5300   14
82.5400   7
82.5500   18
82.5600   9
82.5700   9
82.5800   15
82.5900   9
82.6000   10
82.6100   14
82.6200   12
82.6300   16
82.6400   12
82.6500   18
82.6600   10
82.6700   13
82.6800   19
82.6900   14
82.7000   11
82.7100   12
82.7200   14
82.7300   18
82.7400   21
82.7500   15
82.7600   17
82.7700   17
82.7800   14
82.7900   17
82.8000   14
82.8100   10
82.8200   23
82.8300   19
82.8400   18
82.8500   15
82.8600   10
82.8700   14
82.8800   15
82.8900   21
82.9000   9
82.9100   18
82.9200   10
82.9300   27
82.9400   22
82.9500   29
82.9600   25
82.9700   30
82.9800   29
82.9900   41
83.0000   49
83.0100   66
83.0200   60
83.0300   72
83.0400   79
83.0500   88
83.0600   130
83.0700   126
83.0800   118
83.0900   146
83.1000   157
83.1100   183
83.1200   152
83.1300   160
83.1400   165
83.1500   145
83.1600   125
83.1700   118
83.1800   126
83.1900   112
83.2000   85
83.2100   74
83.2200   55
83.2300   47
83.2400   53
83.2500   43
83.2600   46
83.2700   48
83.2800   53
83.2900   50
83.3000   67
83.3100   55
83.3200   57
83.3300   67
83.3400   74
83.3500   80
83.3600   72
83.3700   73
83.3800   76
83.3900   85
83.4000   82
83.4100   75
83.4200   48
83.4300   51
83.4400   49
83.4500   38
83.4600   34
83.4700   34
83.4800   29
83.4900   32
83.5000   22
83.5100   14
83.5200   24
83.5300   21
83.5400   20
83.5500   19
83.5600   15
83.5700   10
83.5800   10
83.5900   13
83.6000   15
83.6100   8
83.6200   10
83.6300   14
83.6400   15
83.6500   11
83.6600   14
83.6700   11
83.6800   13
83.6900   14
83.7000   11
83.7100   12
83.7200   11
83.7300   13
83.7400   15
83.7500   10
83.7600   15
83.7700   10
83.7800   14
83.7900   14
83.8000   10
83.8100   11
83.8200   14
83.8300   16
83.8400   10
83.8500   9
83.8600   8
83.8700   6
83.8800   12
83.8900   10
83.9000   5
83.9100   13
83.9200   8
83.9300   12
83.9400   13
83.9500   10
83.9600   12
83.9700   13
83.9800   6
83.9900   8
84.0000   11
84.0100   8
84.0200   11
84.0300   10
84.0400   9
84.0500   12
84.0600   15
84.0700   15
84.0800   12
84.0900   11
84.1000   14
84.1100   15
84.1200   8
84.1300   13
84.1400   13
84.1500   19
84.1600   13
84.1700   14
84.1800   10
84.1900   13
84.2000   8
84.2100   16
84.2200   20
84.2300   7
84.2400   18
84.2500   18
84.2600   13
84.2700   16
84.2800   14
84.2900   13
84.3000   7
84.3100   16
84.3200   9
84.3300   12
84.3400   9
84.3500   16
84.3600   6
84.3700   19
84.3800   19
84.3900   7
84.4000   10
84.4100   13
84.4200   13
84.4300   13
84.4400   18
84.4500   22
84.4600   14
84.4700   5
84.4800   13
84.4900   8
84.5000   10
84.5100   9
84.5200   9
84.5300   3
84.5400   13
84.5500   15
84.5600   4
84.5700   19
84.5800   14
84.5900   14
84.6000   17
84.6100   19
84.6200   16
84.6300   9
84.6400   13
84.6500   12
84.6600   17
84.6700   10
84.6800   15
84.6900   13
84.7000   11
84.7100   10
84.7200   9
84.7300   10
84.7400   14
84.7500   8
84.7600   11
84.7700   13
84.7800   5
84.7900   7
84.8000   12
84.8100   16
84.8200   16
84.8300   9
84.8400   13
84.8500   11
84.8600   16
84.8700   7
84.8800   13
84.8900   15
84.9000   14
84.9100   11
84.9200   6
84.9300   13
84.9400   15
84.9500   14
84.9600   16
84.9700   16
84.9800   12
84.9900   10
85.0000   11
85.0100   9
85.0200   12
85.0300   5
85.0400   10
85.0500   9
85.0600   12
85.0700   18
85.0800   13
85.0900   13
85.1000   15
85.1100   3
85.1200   9
85.1300   11
85.1400   9
85.1500   11
85.1600   6
85.1700   7
85.1800   9
85.1900   7
85.2000   9
85.2100   13
85.2200   8
85.2300   7
85.2400   9
85.2500   13
85.2600   8
85.2700   12
85.2800   14
85.2900   12
85.3000   9
85.3100   11
85.3200   7
85.3300   5
85.3400   15
85.3500   10
85.3600   12
85.3700   14
85.3800   7
85.3900   576
85.4000   9
85.4100   6
85.4200   4
85.4300   9
85.4400   8
85.4500   8
85.4600   7
85.4700   8
85.4800   9
85.4900   11
85.5000   11
85.5100   15
85.5200   11
85.5300   16
85.5400   13
85.5500   14
85.5600   7
85.5700   10
85.5800   10
85.5900   13
85.6000   16
85.6100   11
85.6200   10
85.6300   9
85.6400   11
85.6500   12
85.6600   8
85.6700   11
85.6800   9
85.6900   13
85.7000   13
85.7100   8
85.7200   10
85.7300   6
85.7400   7
85.7500   6
85.7600   7
85.7700   9
85.7800   11
85.7900   9
85.8000   10
85.8100   12
85.8200   8
85.8300   12
85.8400   5
85.8500   4
85.8600   6
85.8700   8
85.8800   11
85.8900   7
85.9000   6
85.9100   6
85.9200   3
85.9300   7
85.9400   9
85.9500   6
85.9600   9
85.9700   7
85.9800   4
85.9900   5
86.0000   7
86.0100   10
86.0200   15
86.0300   7
86.0400   9
86.0500   8
86.0600   10
86.0700   11
86.0800   4
86.0900   4
86.1000   10
86.1100   11
86.1200   9
86.1300   7
86.1400   10
86.1500   10
86.1600   10
86.1700   11
86.1800   6
86.1900   8
86.2000   10
86.2100   7
86.2200   7
86.2300   16
86.2400   14
86.2500   7
86.2600   10
86.2700   14
86.2800   11
86.2900   9
86.3000   13
86.3100   8
86.3200   11
86.3300   14
86.3400   17
86.3500   12
86.3600   9
86.3700   12
86.3800   9
86.3900   12
86.4000   5
86.4100   11
86.4200   7
86.4300   8
86.4400   5
86.4500   9
86.4600   11
86.4700   13
86.4800   5
86.4900   11
86.5000   7
86.5100   11
86.5200   10
86.5300   11
86.5400   13
86.5500   11
86.5600   9
86.5700   10
86.5800   8
86.5900   6
86.6000   8
86.6100   9
86.6200   9
86.6300   9
86.6400   8
86.6500   5
86.6600   7
86.6700   11
86.6800   9
86.6900   8
86.7000   7
86.7100   7
86.7200   10
86.7300   8
86.7400   12
86.7500   15
86.7600   8
86.7700   9
86.7800   7
86.7900   8
86.8000   12
86.8100   4
86.8200   16
86.8300   9
86.8400   13
86.8500   2
86.8600   8
86.8700   3
86.8800   9
86.8900   11
86.9000   10
86.9100   11
86.9200   11
86.9300   9
86.9400   9
86.9500   11
86.9600   14
86.9700   5
86.9800   5
86.9900   586
87.0000   12
87.0100   13
87.0200   10
87.0300   3
87.0400   11
87.0500   15
87.0600   17
87.0700   13
87.0800   12
87.0900   11
87.1000   13
87.1100   9
87.1200   12
87.1300   5
87.1400   5
87.1500   5
87.1600   6
87.1700   8
87.1800   5
87.1900   5
87.2000   5
87.2100   6
87.2200   8
87.2300   8
87.2400   9
87.2500   11
87.2600   6
87.2700   9
87.2800   12
87.2900   15
87.3000   9
87.3100   11
87.3200   7
87.3300   11
87.3400   12
87.3500   4
87.3600   6
87.3700   13
87.3800   12
87.3900   6
87.4000   4
87.4100   16
87.4200   12
87.4300   14
87.4400   8
87.4500   8
87.4600   12
87.4700   13
87.4800   9
87.4900   13
87.5000   7
87.5100   5
87.5200   10
87.5300   13
87.5400   6
87.5500   9
87.5600   11
87.5700   10
87.5800   7
87.5900   7
87.6000   2
87.6100   10
87.6200   8
87.6300   11
87.6400   14
87.6500   5
87.6600   18
87.6700   12
87.6800   8
87.6900   7
87.7000   8
87.7100   4
87.7200   4
87.7300   8
87.7400   10
87.7500   11
87.7600   14
87.7700   13
87.7800   10
87.7900   9
87.8000   8
87.8100   5
87.8200   17
87.8300   19
87.8400   15
87.8500   9
87.8600   8
87.8700   6
87.8800   8
87.8900   11
87.9000   9
87.9100   9
87.9200   11
87.9300   12
87.9400   16
87.9500   11
87.9600   9
87.9700   12
87.9800   15
87.9900   6
88.0000   14
88.0100   11
88.0200   10
88.0300   15
88.0400   11
88.0500   4
88.0600   6
88.0700   14
88.0800   10
88.0900   10
88.1000   13
88.1100   11
88.1200   14
88.1300   11
88.1400   8
88.1500   8
88.1600   21
88.1700   10
88.1800   7
88.1900   10
88.2000   9
88.2100   12
88.2200   17
88.2300   12
88.2400   13
88.2500   8
88.2600   9
88.2700   7
88.2800   7
88.2900   7
88.3000   5
88.3100   15
88.3200   6
88.3300   9
88.3400   11
88.3500   5
88.3600   6
88.3700   15
88.3800   11
88.3900   7
88.4000   7
88.4100   5
88.4200   7
88.4300   9
88.4400   7
88.4500   7
88.4600   8
88.4700   11
88.4800   15
88.4900   7
88.5000   1
88.5100   12
88.5200   9
88.5300   6
88.5400   6
88.5500   7
88.5600   9
88.5700   11
88.5800   9
88.5900   11
88.6000   10
88.6100   6
88.6200   8
88.6300   7
88.6400   12
88.6500   10
88.6600   11
88.6700   10
88.6800   11
88.6900   8
88.7000   11
88.7100   12
88.7200   6
88.7300   8
88.7400   9
88.7500   11
88.7600   9
88.7700   9
88.7800   13
88.7900   7
88.8000   6
88.8100   9
88.8200   9
88.8300   8
88.8400   5
88.8500   4
88.8600   7
88.8700   7
88.8800   10
88.8900   6
88.9000   9
88.9100   15
88.9200   12
88.9300   12
88.9400   13
88.9500   13
88.9600   11
88.9700   11
88.9800   9
88.9900   10
89.0000   10
89.0100   10
89.0200   11
89.0300   8
89.0400   11
89.0500   8
89.0600   8
89.0700   8
89.0800   11
89.0900   11
89.1000   11
89.1100   15
89.1200   13
89.1300   15
89.1400   7
89.1500   12
89.1600   6
89.1700   16
89.1800   6
89.1900   9
89.2000   12
89.2100   10
89.2200   10
89.2300   15
89.2400   10
89.2500   7
89.2600   9
89.2700   12
89.2800   14
89.2900   8
89.3000   11
89.3100   5
89.3200   5
89.3300   9
89.3400   13
89.3500   10
89.3600   7
89.3700   13
89.3800   10
89.3900   13
89.4000   11
89.4100   12
89.4200   9
89.4300   14
89.4400   15
89.4500   22
89.4600   16
89.4700   23
89.4800   26
89.4900   12
89.5000   21
89.5100   23
89.5200   20
89.5300   24
89.5400   17
89.5500   25
89.5600   17
89.5700   23
89.5800   19
89.5900   24
89.6000   22
89.6100   16
89.6200   15
89.6300   15
89.6400   16
89.6500   8
89.6600   15
89.6700   10
89.6800   10
89.6900   12
89.7000   14
89.7100   6
89.7200   9
89.7300   26
89.7400   11
89.7500   13
89.7600   9
89.7700   11
89.7800   16
89.7900   19
89.8000   17
89.8100   15
89.8200   12
89.8300   18
89.8400   17
89.8500   17
89.8600   16
89.8700   18
89.8800   18
89.8900   20
89.9000   12
89.9100   10
89.9200   8
89.9300   4
89.9400   12
89.9500   6
89.9600   6
89.9700   5
89.9800   13
89.9900   10
90.0000   10
90.0100   5
90.0200   12
90.0300   6
90.0400   8
90.0500   12
90.0600   9
90.0700   9
90.0800   11
90.0900   11
90.1000   6
90.1100   6
90.1200   8
90.1300   7
90.1400   7
90.1500   7
90.1600   10
90.1700   9
90.1800   8
90.1900   10
90.2000   8
90.2100   12
90.2200   10
90.2300   5
90.2400   12
90.2500   8
90.2600   9
90.2700   7
90.2800   9
90.2900   11
90.3000   8
90.3100   12
90.3200   5
90.3300   6
90.3400   9
90.3500   9
90.3600   9
90.3700   9
90.3800   9
90.3900   8
90.4000   7
90.4100   4
90.4200   606
90.4300   7
90.4400   6
90.4500   10
90.4600   7
90.4700   7
90.4800   6
90.4900   9
90.5000   9
90.5100   12
90.5200   8
90.5300   12
90.5400   7
90.5500   14
90.5600   5
90.5700   2
90.5800   14
90.5900   7
90.6000   9
90.6100   9
90.6200   10
90.6300   9
90.6400   10
90.6500   8
90.6600   7
90.6700   7
90.6800   8
90.6900   9
90.7000   7
90.7100   11
90.7200   10
90.7300   6
90.7400   6
90.7500   16
90.7600   14
90.7700   6
90.7800   8
90.7900   10
90.8000   7
90.8100   8
90.8200   5
90.8300   6
90.8400   9
90.8500   4
90.8600   9
90.8700   9
90.8800   8
90.8900   8
90.9000   10
90.9100   8
90.9200   8
90.9300   13
90.9400   16
90.9500   4
90.9600   6
90.9700   9
90.9800   11
90.9900   6
91.0000   2
91.0100   9
91.0200   5
91.0300   12
91.0400   6
91.0500   579
91.0600   7
91.0700   4
91.0800   9
91.0900   11
91.1000   7
91.1100   5
91.1200   907
91.1300   9
91.1400   10
91.1500   10
91.1600   11
91.1700   7
91.1800   9
91.1900   12
91.2000   14
91.2100   10
91.2200   9
91.2300   3
91.2400   6
91.2500   8
91.2600   12
91.2700   9
91.2800   6
91.2900   8
91.3000   3
91.3100   18
91.3200   9
91.3300   6
91.3400   8
91.3500   11
91.3600   10
91.3700   13
91.3800   13
91.3900   8
91.4000   7
91.4100   9
91.4200   6
91.4300   9
91.4400   11
91.4500   535
91.4600   13
91.4700   12
91.4800   9
91.4900   5
91.5000   7
91.5100   9
91.5200   7
91.5300   6
91.5400   6
91.5500   12
91.5600   11
91.5700   12
91.5800   18
91.5900   9
91.6000   12
91.6100   10
91.6200   13
91.6300   12
91.6400   11
91.6500   4
91.6600   12
91.6700   13
91.6800   6
91.6900   7
91.7000   500
91.7100   7
91.7200   5
91.7300   5
91.7400   1251
91.7500   11
91.7600   15
91.7700   6
91.7800   9
91.7900   12
91.8000   11
91.8100   6
91.8200   21
91.8300   14
91.8400   14
91.8500   21
91.8600   11
91.8700   7
91.8800   11
91.8900   14
91.9000   14
91.9100   12
91.9200   14
91.9300   6
91.9400   8
91.9500   11
91.9600   6
91.9700   12
91.9800   12
91.9900   12
92.0000   8
92.0100   9
92.0200   13
92.0300   9
92.0400   6
92.0500   6
92.0600   5
92.0700   6
92.0800   7
92.0900   7
92.1000   7
92.1100   10
92.1200   12
92.1300   11
92.1400   14
92.1500   15
92.1600   10
92.1700   9
92.1800   7
92.1900   8
92.2000   8
92.2100   4
92.2200   7
92.2300   7
92.2400   21
92.2500   10
92.2600   8
92.2700   9
92.2800   8
92.2900   8
92.3000   11
92.3100   10
92.3200   9
92.3300   8
92.3400   8
92.3500   8
92.3600   8
92.3700   9
92.3800   6
92.3900   9
92.4000   7
92.4100   1
92.4200   8
92.4300   12
92.4400   7
92.4500   8
92.4600   10
92.4700   8
92.4800   11
92.4900   11
92.5000   8
92.5100   8
92.5200   4
92.5300   12
92.5400   16
92.5500   11
92.5600   7
92.5700   7
92.5800   9
92.5900   6
92.6000   6
92.6100   8
92.6200   7
92.6300   10
92.6400   7
92.6500   6
92.6600   8
92.6700   12
92.6800   12
92.6900   14
92.7000   7
92.7100   9
92.7200   11
92.7300   12
92.7400   10
92.7500   3
92.7600   17
92.7700   12
92.7800   10
92.7900   4
92.8000   12
92.8100   11
92.8200   11
92.8300   10
92.8400   10
92.8500   6
92.8600   6
92.8700   2
92.8800   9
92.8900   9
92.9000   6
92.9100   4
92.9200   10
92.9300   6
92.9400   9
92.9500   7
92.9600   9
92.9700   4
92.9800   5
92.9900   15
93.0000   10
93.0100   7
93.0200   9
93.0300   11
93.0400   7
93.0500   8
93.0600   5
93.0700   12
93.0800   12
93.0900   12
93.1000   5
93.1100   8
93.1200   7
93.1300   7
93.1400   6
93.1500   9
93.1600   9
93.1700   10
93.1800   4
93.1900   7
93.2000   4
93.2100   8
93.2200   3
93.2300   12
93.2400   13
93.2500   12
93.2600   8
93.2700   9
93.2800   9
93.2900   5
93.3000   8
93.3100   8
93.3200   6
93.3300   6
93.3400   6
93.3500   13
93.3600   6
93.3700   9
93.3800   10
93.3900   11
93.4000   8
93.4100   8
93.4200   8
93.4300   11
93.4400   4
93.4500   11
93.4600   8
93.4700   5
93.4800   14
93.4900   8
93.5000   3
93.5100   13
93.5200   15
93.5300   8
93.5400   9
93.5500   6
93.5600   7
93.5700   6
93.5800   11
93.5900   12
93.6000   8
93.6100   2
93.6200   9
93.6300   7
93.6400   8
93.6500   9
93.6600   8
93.6700   9
93.6800   7
93.6900   8
93.7000   5
93.7100   14
93.7200   6
93.7300   4
93.7400   3
93.7500   8
93.7600   12
93.7700   11
93.7800   4
93.7900   6
93.8000   9
93.8100   10
93.8200   2
93.8300   9
93.8400   13
93.8500   4
93.8600   9
93.8700   5
93.8800   6
93.8900   2
93.9000   9
93.9100   12
93.9200   6
93.9300   7
93.9400   3
93.9500   14
93.9600   7
93.9700   5
93.9800   6
93.9900   4
94.0000   10
94.0100   4
94.0200   10
94.0300   11
94.0400   13
94.0500   9
94.0600   9
94.0700   11
94.0800   4
94.0900   19
94.1000   9
94.1100   15
94.1200   15
94.1300   14
94.1400   13
94.1500   8
94.1600   12
94.1700   7
94.1800   8
94.1900   11
94.2000   13
94.2100   6
94.2200   8
94.2300   10
94.2400   14
94.2500   8
94.2600   10
94.2700   11
94.2800   13
94.2900   15
94.3000   17
94.3100   15
94.3200   11
94.3300   13
94.3400   15
94.3500   15
94.3600   22
94.3700   20
94.3800   12
94.3900   8
94.4000   7
94.4100   10
94.4200   7
94.4300   12
94.4400   16
94.4500   12
94.4600   10
94.4700   8
94.4800   10
94.4900   15
94.5000   15
94.5100   16
94.5200   20
94.5300   10
94.5400   5
94.5500   7
94.5600   8
94.5700   11
94.5800   14
94.5900   9
94.6000   13
94.6100   17
94.6200   12
94.6300   15
94.6400   19
94.6500   17
94.6600   15
94.6700   13
94.6800   17
94.6900   11
94.7000   16
94.7100   12
94.7200   13
94.7300   8
94.7400   11
94.7500   10
94.7600   7
94.7700   9
94.7800   13
94.7900   11
94.8000   8
94.8100   10
94.8200   9
94.8300   13
94.8400   14
94.8500   11
94.8600   9
94.8700   8
94.8800   8
94.8900   9
94.9000   13
94.9100   10
94.9200   11
94.9300   8
94.9400   6
94.9500   564
94.9600   17
94.9700   18
94.9800   7
94.9900   14
95.0000   10
95.0100   8
95.0200   6
95.0300   13
95.0400   8
95.0500   6
95.0600   7
95.0700   5
95.0800   8
95.0900   10
95.1000   8
95.1100   8
95.1200   8
95.1300   12
95.1400   6
95.1500   8
95.1600   11
95.1700   16
95.1800   13
95.1900   8
95.2000   11
95.2100   6
95.2200   8
95.2300   12
95.2400   8
95.2500   6
95.2600   6
95.2700   6
95.2800   5
95.2900   4
95.3000   7
95.3100   7
95.3200   6
95.3300   9
95.3400   11
95.3500   6
95.3600   5
95.3700   10
95.3800   6
95.3900   7
95.4000   9
95.4100   12
95.4200   8
95.4300   8
95.4400   9
95.4500   12
95.4600   10
95.4700   4
95.4800   6
95.4900   6
95.5000   9
95.5100   5
95.5200   7
95.5300   5
95.5400   6
95.5500   12
95.5600   8
95.5700   7
95.5800   10
95.5900   7
95.6000   9
95.6100   10
95.6200   8
95.6300   8
95.6400   8
95.6500   5
95.6600   6
95.6700   16
95.6800   6
95.6900   6
95.7000   10
95.7100   11
95.7200   8
95.7300   7
95.7400   7
95.7500   7
95.7600   10
95.7700   8
95.7800   8
95.7900   9
95.8000   4
95.8100   3
95.8200   14
95.8300   14
95.8400   13
95.8500   3
95.8600   10
95.8700   11
95.8800   12
95.8900   8
95.9000   9
95.9100   9
95.9200   8
95.9300   5
95.9400   3
95.9500   8
95.9600   4
95.9700   6
95.9800   8
95.9900   10
96.0000   12
96.0100   4
96.0200   5
96.0300   4
96.0400   789
96.0500   11
96.0600   5
96.0700   11
96.0800   9
96.0900   11
96.1000   16
96.1100   9
96.1200   6
96.1300   5
96.1400   8
96.1500   5
96.1600   4
96.1700   11
96.1800   3
96.1900   11
96.2000   2
96.2100   10
96.2200   4
96.2300   5
96.2400   10
96.2500   6
96.2600   7
96.2700   8
96.2800   8
96.2900   9
96.3000   11
96.3100   16
96.3200   6
96.3300   9
96.3400   12
96.3500   8
96.3600   7
96.3700   6
96.3800   12
96.3900   13
96.4000   9
96.4100   7
96.4200   6
96.4300   9
96.4400   12
96.4500   17
96.4600   11
96.4700   11
96.4800   6
96.4900   4
96.5000   6
96.5100   9
96.5200   7
96.5300   9
96.5400   6
96.5500   8
96.5600   10
96.5700   12
96.5800   14
96.5900   8
96.6000   7
96.6100   10
96.6200   10
96.6300   3
96.6400   10
96.6500   6
96.6600   7
96.6700   9
96.6800   11
96.6900   10
96.7000   7
96.7100   3
96.7200   14
96.7300   6
96.7400   8
96.7500   5
96.7600   6
96.7700   8
96.7800   9
96.7900   7
96.8000   9
96.8100   5
96.8200   8
96.8300   4
96.8400   10
96.8500   6
96.8600   7
96.8700   9
96.8800   9
96.8900   8
96.9000   11
96.9100   15
96.9200   9
96.9300   9
96.9400   6
96.9500   6
96.9600   2
96.9700   3
96.9800   9
96.9900   6
97.0000   6
97.0100   6
97.0200   5
97.0300   18
97.0400   8
97.0500   9
97.0600   9
97.0700   8
97.0800   7
97.0900   12
97.1000   8
97.1100   7
97.1200   10
97.1300   6
97.1400   8
97.1500   6
97.1600   4
97.1700   6
97.1800   9
97.1900   10
97.2000   11
97.2100   12
97.2200   8
97.2300   12
97.2400   7
97.2500   5
97.2600   11
97.2700   13
97.2800   7
97.2900   4
97.3000   7
97.3100   10
97.3200   14
97.3300   9
97.3400   13
97.3500   13
97.3600   16
97.3700   12
97.3800   11
97.3900   16
97.4000   15
97.4100   6
97.4200   8
97.4300   5
97.4400   5
97.4500   5
97.4600   17
97.4700   6
97.4800   12
97.4900   18
97.5000   10
97.5100   7
97.5200   9
97.5300   12
97.5400   9
97.5500   12
97.5600   13
97.5700   7
97.5800   2
97.5900   13
97.6000   7
97.6100   11
97.6200   11
97.6300   6
97.6400   22
97.6500   11
97.6600   8
97.6700   5
97.6800   6
97.6900   4
97.7000   8
97.7100   10
97.7200   14
97.7300   10
97.7400   15
97.7500   7
97.7600   9
97.7700   7
97.7800   5
97.7900   11
97.8000   6
97.8100   3
97.8200   9
97.8300   11
97.8400   13
97.8500   8
97.8600   8
97.8700   11
97.8800   12
97.8900   13
97.9000   8
97.9100   8
97.9200   8
97.9300   11
97.9400   5
97.9500   11
97.9600   11
97.9700   7
97.9800   11
97.9900   8
98.0000   8
98.0100   10
98.0200   3
98.0300   10
98.0400   14
98.0500   11
98.0600   9
98.0700   9
98.0800   11
98.0900   11
98.1000   7
98.1100   8
98.1200   10
98.1300   10
98.1400   11
98.1500   7
98.1600   10
98.1700   11
98.1800   6
98.1900   6
98.2000   16
98.2100   8
98.2200   9
98.2300   11
98.2400   15
98.2500   10
98.2600   6
98.2700   9
98.2800   9
98.2900   9
98.3000   11
98.3100   15
98.3200   10
98.3300   11
98.3400   13
98.3500   10
98.3600   11
98.3700   9
98.3800   7
98.3900   5
98.4000   6
98.4100   12
98.4200   9
98.4300   9
98.4400   7
98.4500   7
98.4600   3
98.4700   15
98.4800   11
98.4900   5
98.5000   15
98.5100   12
98.5200   13
98.5300   5
98.5400   3
98.5500   17
98.5600   10
98.5700   10
98.5800   10
98.5900   5
98.6000   10
98.6100   11
98.6200   12
98.6300   14
98.6400   6
98.6500   7
98.6600   11
98.6700   12
98.6800   4
98.6900   570
98.7000   5
98.7100   4
98.7200   18
98.7300   16
98.7400   6
98.7500   8
98.7600   8
98.7700   11
98.7800   15
98.7900   7
98.8000   5
98.8100   7
98.8200   6
98.8300   12
98.8400   9
98.8500   10
98.8600   14
98.8700   8
98.8800   7
98.8900   10
98.9000   14
98.9100   8
98.9200   10
98.9300   14
98.9400   11
98.9500   13
98.9600   10
98.9700   14
98.9800   13
98.9900   15
99.0000   9
99.0100   10
99.0200   14
99.0300   9
99.0400   10
99.0500   9
99.0600   12
99.0700   14
99.0800   11
99.0900   13
99.1000   11
99.1100   11
99.1200   9
99.1300   10
99.1400   10
99.1500   7
99.1600   10
99.1700   15
99.1800   10
99.1900   14
99.2000   14
99.2100   8
99.2200   11
99.2300   7
99.2400   7
99.2500   7
99.2600   8
99.2700   5
99.2800   7
99.2900   7
99.3000   9
99.3100   7
99.3200   12
99.3300   7
99.3400   9
99.3500   7
99.3600   5
99.3700   7
99.3800   9
99.3900   10
99.4000   13
99.4100   7
99.4200   7
99.4300   9
99.4400   12
99.4500   7
99.4600   7
99.4700   7
99.4800   10
99.4900   15
99.5000   7
99.5100   7
99.5200   8
99.5300   5
99.5400   7
99.5500   12
99.5600   10
99.5700   7
99.5800   5
99.5900   17
99.6000   15
99.6100   13
99.6200   14
99.6300   14
99.6400   15
99.6500   12
99.6600   12
99.6700   13
99.6800   13
99.6900   12
99.7000   13
99.7100   10
99.7200   11
99.7300   9
99.7400   4
99.7500   6
99.7600   9
99.7700   8
99.7800   8
99.7900   5
99.8000   14
99.8100   9
99.8200   6
99.8300   6
99.8400   8
99.8500   8
99.8600   8
99.8700   5
99.8800   7
99.8900   10
99.9000   10
99.9100   9
99.9200   12
99.9300   13
99.9400   13
99.9500   9
99.9600   10
99.9700   14
99.9800   8
99.9900   7
100.0000   14
100.0100   10
100.0200   10
100.0300   12
100.0400   12
100.0500   13
100.0600   10
100.0700   9
100.0800   19
100.0900   11
100.1000   16
100.1100   6
100.1200   8
100.1300   12
100.1400   14
100.1500   12
100.1600   16
100.1700   17
100.1800   11
100.1900   13
100.2000   17
100.2100   13
100.2200   18
100.2300   21
100.2400   26
100.2500   14
100.2600   21
100.2700   29
100.2800   30
100.2900   35
100.3000   32
100.3100   47
100.3200   44
100.3300   57
100.3400   40
100.3500   37
100.3600   44
100.3700   29
100.3800   33
100.3900   17
100.4000   19
100.4100   22
100.4200   18
100.4300   21
100.4400   11
100.4500   9
100.4600   9
100.4700   8
100.4800   17
100.4900   21
100.5000   12
100.5100   11
100.5200   15
100.5300   5
100.5400   15
100.5500   10
100.5600   10
100.5700   23
100.5800   14
100.5900   13
100.6000   18
100.6100   13
100.6200   12
100.6300   15
100.6400   15
100.6500   25
100.6600   16
100.6700   29
100.6800   30
100.6900   20
100.7000   23
100.7100   22
100.7200   23
100.7300   18
100.7400   9
100.7500   13
100.7600   14
100.7700   16
100.7800   19
100.7900   8
100.8000   10
100.8100   7
100.8200   7
100.8300   9
100.8400   9
100.8500   14
100.8600   21
100.8700   6
100.8800   8
100.8900   7
100.9000   11
100.9100   6
100.9200   6
100.9300   8
100.9400   7
100.9500   10
100.9600   12
100.9700   13
100.9800   19
100.9900   12
101.0000   18
101.0100   9
101.0200   6
101.0300   12
101.0400   14
101.0500   9
101.0600   12
101.0700   12
101.0800   12
101.0900   14
101.1000   11
101.1100   10
101.1200   14
101.1300   5
101.1400   11
101.1500   15
101.1600   11
101.1700   13
101.1800   13
101.1900   8
101.2000   11
101.2100   7
101.2200   544
101.2300   8
101.2400   8
101.2500   8
101.2600   9
101.2700   7
101.2800   6
101.2900   13
101.3000   17
101.3100   9
101.3200   13
101.3300   11
101.3400   7
101.3500   10
101.3600   13
101.3700   6
101.3800   12
101.3900   15
101.4000   12
101.4100   16
101.4200   10
101.4300   12
101.4400   11
101.4500   7
101.4600   12
101.4700   11
101.4800   14
101.4900   17
101.5000   17
101.5100   14
101.5200   11
101.5300   8
101.5400   4
101.5500   9
101.5600   12
101.5700   8
101.5800   8
101.5900   12
101.6000   10
101.6100   9
101.6200   12
101.6300   13
101.6400   11
101.6500   11
101.6600   14
101.6700   14
101.6800   9
101.6900   4
101.7000   19
101.7100   11
101.7200   13
101.7300   14
101.7400   9
101.7500   12
101.7600   18
101.7700   16
101.7800   17
101.7900   13
101.8000   10
101.8100   13
101.8200   9
101.8300   21
101.8400   10
101.8500   7
101.8600   9
101.8700   5
101.8800   17
101.8900   11
101.9000   10
101.9100   13
101.9200   14
101.9300   18
101.9400   20
101.9500   12
101.9600   11
101.9700   8
101.9800   586
101.9900   14
102.0000   12
102.0100   7
102.0200   6
102.0300   7
102.0400   7
102.0500   9
102.0600   11
102.0700   5
102.0800   11
102.0900   9
102.1000   13
102.1100   10
102.1200   11
102.1300   5
102.1400   9
102.1500   10
102.1600   10
102.1700   11
102.1800   5
102.1900   7
102.2000   10
102.2100   10
102.2200   9
102.2300   11
102.2400   9
102.2500   12
102.2600   11
102.2700   10
102.2800   11
102.2900   13
102.3000   9
102.3100   12
102.3200   15
102.3300   6
102.3400   6
102.3500   7
102.3600   18
102.3700   12
102.3800   6
102.3900   11
102.4000   7
102.4100   8
102.4200   10
102.4300   10
102.4400   8
102.4500   9
102.4600   6
102.4700   9
102.4800   9
102.4900   13
102.5000   12
102.5100   8
102.5200   12
102.5300   9
102.5400   12
102.5500   15
102.5600   11
102.5700   11
102.5800   9
102.5900   9
102.6000   6
102.6100   11
102.6200   5
102.6300   13
102.6400   15
102.6500   11
102.6600   8
102.6700   10
102.6800   10
102.6900   12
102.7000   17
102.7100   16
102.7200   13
102.7300   6
102.7400   8
102.7500   7
102.7600   12
102.7700   12
102.7800   12
102.7900   13
102.8000   6
102.8100   6
102.8200   6
102.8300   7
102.8400   9
102.8500   13
102.8600   17
102.8700   10
102.8800   12
102.8900   9
102.9000   882
102.9100   17
102.9200   9
102.9300   8
102.9400   12
102.9500   11
102.9600   13
102.9700   14
102.9800   13
102.9900   16
103.0000   9
103.0100   5
103.0200   14
103.0300   8
103.0400   8
103.0500   12
103.0600   9
103.0700   7
103.0800   10
103.0900   8
103.1000   6
103.1100   7
103.1200   7
103.1300   8
103.1400   12
103.1500   15
103.1600   9
103.1700   7
103.1800   8
103.1900   9
103.2000   8
103.2100   7
103.2200   8
103.2300   6
103.2400   8
103.2500   8
103.2600   10
103.2700   12
103.2800   8
103.2900   9
103.3000   7
103.3100   9
103.3200   12
103.3300   12
103.3400   8
103.3500   14
103.3600   12
103.3700   9
103.3800   7
103.3900   7
103.4000   5
103.4100   13
103.4200   17
103.4300   12
103.4400   15
103.4500   10
103.4600   8
103.4700   10
103.4800   9
103.4900   10
103.5000   4
103.5100   5
103.5200   8
103.5300   6
103.5400   8
103.5500   6
103.5600   6
103.5700   3
103.5800   15
103.5900   9
103.6000   8
103.6100   7
103.6200   8
103.6300   9
103.6400   11
103.6500   8
103.6600   11
103.6700   16
103.6800   9
103.6900   10
103.7000   9
103.7100   8
103.7200   10
103.7300   13
103.7400   14
103.7500   7
103.7600   7
103.7700   10
103.7800   9
103.7900   8
103.8000   7
103.8100   10
103.8200   6
103.8300   10
103.8400   12
103.8500   13
103.8600   8
103.8700   11
103.8800   15
103.8900   9
103.9000   12
103.9100   7
103.9200   10
103.9300   12
103.9400   16
103.9500   3
103.9600   3
103.9700   18
103.9800   12
103.9900   6
104.0000   8
104.0100   10
104.0200   5
104.0300   12
104.0400   12
104.0500   9
104.0600   13
104.0700   12
104.0800   15
104.0900   14
104.1000   12
104.1100   8
104.1200   9
104.1300   12
104.1400   17
104.1500   8
104.1600   6
104.1700   9
104.1800   11
104.1900   4
104.2000   18
104.2100   14
104.2200   12
104.2300   13
104.2400   11
104.2500   11
104.2600   13
104.2700   13
104.2800   17
104.2900   17
104.3000   19
104.3100   10
104.3200   13
104.3300   13
104.3400   15
104.3500   12
104.3600   16
104.3700   16
104.3800   18
104.3900   8
104.4000   16
104.4100   17
104.4200   13
104.4300   18
104.4400   13
104.4500   14
104.4600   14
104.4700   16
104.4800   14
104.4900   17
104.5000   11
104.5100   16
104.5200   14
104.5300   13
104.5400   12
104.5500   14
104.5600   16
104.5700   13
104.5800   10
104.5900   11
104.6000   15
104.6100   15
104.6200   15
104.6300   15
104.6400   10
104.6500   9
104.6600   13
104.6700   12
104.6800   11
104.6900   11
104.7000   11
104.7100   3
104.7200   551
104.7300   11
104.7400   10
104.7500   11
104.7600   15
104.7700   12
104.7800   12
104.7900   15
104.8000   18
104.8100   10
104.8200   12
104.8300   16
104.8400   14
104.8500   12
104.8600   18
104.8700   16
104.8800   14
104.8900   21
104.9000   16
104.9100   23
104.9200   18
104.9300   17
104.9400   18
104.9500   10
104.9600   13
104.9700   13
104.9800   11
104.9900   10
105.0000   13
105.0100   11
105.0200   10
105.0300   10
105.0400   13
105.0500   9
105.0600   11
105.0700   3
105.0800   532
105.0900   533
105.1000   15
105.1100   21
105.1200   8
105.1300   11
105.1400   6
105.1500   9
105.1600   18
105.1700   14
105.1800   18
105.1900   11
105.2000   15
105.2100   17
105.2200   12
105.2300   13
105.2400   8
105.2500   7
105.2600   10
105.2700   8
105.2800   9
105.2900   11
105.3000   6
105.3100   10
105.3200   7
105.3300   14
105.3400   7
105.3500   18
105.3600   9
105.3700   8
105.3800   12
105.3900   13
105.4000   13
105.4100   12
105.4200   12
105.4300   14
105.4400   9
105.4500   13
105.4600   14
105.4700   12
105.4800   9
105.4900   7
105.5000   5
105.5100   6
105.5200   17
105.5300   13
105.5400   8
105.5500   11
105.5600   12
105.5700   15
105.5800   8
105.5900   12
105.6000   17
105.6100   17
105.6200   5
105.6300   16
105.6400   6
105.6500   7
105.6600   15
105.6700   14
105.6800   13
105.6900   11
105.7000   13
105.7100   18
105.7200   11
105.7300   11
105.7400   7
105.7500   10
105.7600   10
105.7700   12
105.7800   6
105.7900   16
105.8000   12
105.8100   10
105.8200   10
105.8300   8
105.8400   10
105.8500   11
105.8600   12
105.8700   10
105.8800   12
105.8900   13
105.9000   7
105.9100   15
105.9200   13
105.9300   14
105.9400   17
105.9500   17
105.9600   4
105.9700   17
105.9800   11
105.9900   6
106.0000   9
106.0100   5
106.0200   6
106.0300   6
106.0400   15
106.0500   11
106.0600   11
106.0700   8
106.0800   12
106.0900   11
106.1000   5
106.1100   14
106.1200   15
106.1300   12
106.1400   9
106.1500   13
106.1600   16
106.1700   18
106.1800   12
106.1900   11
106.2000   7
106.2100   10
106.2200   9
106.2300   7
106.2400   10
106.2500   11
106.2600   10
106.2700   10
106.2800   14
106.2900   11
106.3000   14
106.3100   7
106.3200   7
106.3300   10
106.3400   14
106.3500   16
106.3600   13
106.3700   17
106.3800   7
106.3900   19
106.4000   15
106.4100   11
106.4200   9
106.4300   8
106.4400   14
106.4500   21
106.4600   13
106.4700   11
106.4800   12
106.4900   9
106.5000   4
106.5100   12
106.5200   10
106.5300   9
106.5400   11
106.5500   14
106.5600   8
106.5700   12
106.5800   9
106.5900   13
106.6000   6
106.6100   8
106.6200   9
106.6300   11
106.6400   13
106.6500   12
106.6600   15
106.6700   22
106.6800   15
106.6900   18
106.7000   20
106.7100   12
106.7200   12
106.7300   13
106.7400   15
106.7500   13
106.7600   17
106.7700   14
106.7800   20
106.7900   14
106.8000   13
106.8100   16
106.8200   20
106.8300   16
106.8400   24
106.8500   32
106.8600   27
106.8700   28
106.8800   26
106.8900   25
106.9000   35
106.9100   42
106.9200   34
106.9300   46
106.9400   40
106.9500   54
106.9600   51
106.9700   47
106.9800   63
106.9900   51
107.0000   71
107.0100   50
107.0200   31
107.0300   27
107.0400   30
107.0500   32
107.0600   27
107.0700   30
107.0800   26
107.0900   16
107.1000   20
107.1100   23
107.1200   16
107.1300   10
107.1400   15
107.1500   17
107.1600   23
107.1700   17
107.1800   16
107.1900   19
107.2000   18
107.2100   18
107.2200   16
107.2300   16
107.2400   13
107.2500   16
107.2600   23
107.2700   18
107.2800   20
107.2900   24
107.3000   24
107.3100   32
107.3200   30
107.3300   26
107.3400   32
107.3500   32
107.3600   35
107.3700   29
107.3800   31
107.3900   21
107.4000   30
107.4100   25
107.4200   20
107.4300   21
107.4400   15
107.4500   20
107.4600   15
107.4700   15
107.4800   15
107.4900   18
107.5000   18
107.5100   19
107.5200   16
107.5300   15
107.5400   22
107.5500   16
107.5600   16
107.5700   12
107.5800   15
107.5900   19
107.6000   21
107.6100   30
107.6200   24
107.6300   11
107.6400   13
107.6500   13
107.6600   14
107.6700   6
107.6800   22
107.6900   22
107.7000   17
107.7100   13
107.7200   11
107.7300   14
107.7400   11
107.7500   11
107.7600   15
107.7700   13
107.7800   11
107.7900   8
107.8000   10
107.8100   14
107.8200   7
107.8300   8
107.8400   10
107.8500   13
107.8600   9
107.8700   11
107.8800   13
107.8900   16
107.9000   6
107.9100   16
107.9200   13
107.9300   12
107.9400   12
107.9500   8
107.9600   19
107.9700   19
107.9800   8
107.9900   11
108.0000   12
108.0100   14
108.0200   16
108.0300   20
108.0400   12
108.0500   13
108.0600   14
108.0700   17
108.0800   18
108.0900   16
108.1000   11
108.1100   14
108.1200   18
108.1300   15
108.1400   14
108.1500   18
108.1600   19
108.1700   10
108.1800   21
108.1900   15
108.2000   14
108.2100   16
108.2200   15
108.2300   18
108.2400   19
108.2500   17
108.2600   16
108.2700   21
108.2800   18
108.2900   15
108.3000   15
108.3100   21
108.3200   14
108.3300   11
108.3400   11
108.3500   15
108.3600   16
108.3700   14
108.3800   19
108.3900   17
108.4000   17
108.4100   18
108.4200   14
108.4300   13
108.4400   15
108.4500   14
108.4600   15
108.4700   18
108.4800   11
108.4900   16
108.5000   23
108.5100   21
108.5200   15
108.5300   21
108.5400   21
108.5500   26
108.5600   16
108.5700   9
108.5800   17
108.5900   19
108.6000   14
108.6100   15
108.6200   12
108.6300   18
108.6400   26
108.6500   16
108.6600   14
108.6700   13
108.6800   18
108.6900   25
108.7000   15
108.7100   22
108.7200   19
108.7300   16
108.7400   18
108.7500   24
108.7600   14
108.7700   19
108.7800   19
108.7900   17
108.8000   24
108.8100   21
108.8200   12
108.8300   15
108.8400   12
108.8500   16
108.8600   8
108.8700   21
108.8800   28
108.8900   18
108.9000   24
108.9100   17
108.9200   22
108.9300   18
108.9400   21
108.9500   27
108.9600   18
108.9700   27
108.9800   19
108.9900   28
109.0000   24
109.0100   27
109.0200   31
109.0300   32
109.0400   28
109.0500   36
109.0600   35
109.0700   32
109.0800   37
109.0900   33
109.1000   65
109.1100   66
109.1200   69
109.1300   60
109.1400   66
109.1500   88
109.1600   84
109.1700   125
109.1800   129
109.1900   153
109.2000   171
109.2100   189
109.2200   222
109.2300   246
109.2400   237
109.2500   243
109.2600   199
109.2700   174
109.2800   173
109.2900   180
109.3000   139
109.3100   129
109.3200   115
109.3300   96
109.3400   90
109.3500   71
109.3600   67
109.3700   55
109.3800   67
109.3900   43
109.4000   52
109.4100   35
109.4200   38
109.4300   32
109.4400   36
109.4500   27
109.4600   19
109.4700   27
109.4800   34
109.4900   40
109.5000   32
109.5100   48
109.5200   44
109.5300   46
109.5400   53
109.5500   45
109.5600   39
109.5700   48
109.5800   67
109.5900   65
109.6000   69
109.6100   74
109.6200   97
109.6300   113
109.6400   108
109.6500   101
109.6600   86
109.6700   92
109.6800   117
109.6900   79
109.7000   71
109.7100   74
109.7200   67
109.7300   57
109.7400   39
109.7500   46
109.7600   41
109.7700   33
109.7800   24
109.7900   29
109.8000   29
109.8100   31
109.8200   27
109.8300   14
109.8400   21
109.8500   21
109.8600   21
109.8700   22
109.8800   17
109.8900   18
109.9000   23
109.9100   15
109.9200   20
109.9300   12
109.9400   15
109.9500   10
109.9600   24
109.9700   23
109.9800   17
109.9900   24
110.0000   19
110.0100   19
110.0200   16
110.0300   13
110.0400   23
110.0500   18
110.0600   22
110.0700   21
110.0800   26
110.0900   11
110.1000   24
110.1100   20
110.1200   23
110.1300   18
110.1400   8
110.1500   11
110.1600   15
110.1700   20
110.1800   22
110.1900   12
110.2000   18
110.2100   18
110.2200   17
110.2300   17
110.2400   25
110.2500   11
110.2600   16
110.2700   15
110.2800   10
110.2900   19
110.3000   18
110.3100   18
110.3200   20
110.3300   13
110.3400   10
110.3500   10
110.3600   16
110.3700   13
110.3800   17
110.3900   18
110.4000   23
110.4100   25
110.4200   17
110.4300   9
110.4400   12
110.4500   14
110.4600   13
110.4700   17
110.4800   15
110.4900   14
110.5000   13
110.5100   17
110.5200   12
110.5300   17
110.5400   6
110.5500   9
110.5600   13
110.5700   6
110.5800   15
110.5900   21
110.6000   13
110.6100   18
110.6200   14
110.6300   21
110.6400   22
110.6500   15
110.6600   19
110.6700   17
110.6800   11
110.6900   13
110.7000   18
110.7100   22
110.7200   17
110.7300   14
110.7400   12
110.7500   15
110.7600   16
110.7700   7
110.7800   16
110.7900   16
110.8000   23
110.8100   12
110.8200   13
110.8300   17
110.8400   19
110.8500   15
110.8600   15
110.8700   18
110.8800   15
110.8900   20
110.9000   13
110.9100   6
110.9200   16
110.9300   19
110.9400   26
110.9500   22
110.9600   16
110.9700   15
110.9800   16
110.9900   14
111.0000   19
111.0100   17
111.0200   15
111.0300   19
111.0400   20
111.0500   14
111.0600   13
111.0700   15
111.0800   16
111.0900   11
111.1000   17
111.1100   12
111.1200   16
111.1300   10
111.1400   12
111.1500   14
111.1600   17
111.1700   18
111.1800   14
111.1900   16
111.2000   18
111.2100   18
111.2200   15
111.2300   18
111.2400   18
111.2500   10
111.2600   14
111.2700   18
111.2800   14
111.2900   17
111.3000   9
111.3100   8
111.3200   13
111.3300   16
111.3400   20
111.3500   19
111.3600   15
111.3700   21
111.3800   11
111.3900   15
111.4000   20
111.4100   8
111.4200   12
111.4300   10
111.4400   15
111.4500   21
111.4600   12
111.4700   18
111.4800   17
111.4900   15
111.5000   17
111.5100   19
111.5200   9
111.5300   9
111.5400   13
111.5500   12
111.5600   13
111.5700   15
111.5800   13
111.5900   12
111.6000   17
111.6100   7
111.6200   7
111.6300   17
111.6400   12
111.6500   12
111.6600   12
111.6700   14
111.6800   16
111.6900   17
111.7000   9
111.7100   9
111.7200   11
111.7300   16
111.7400   9
111.7500   12
111.7600   18
111.7700   20
111.7800   19
111.7900   15
111.8000   17
111.8100   16
111.8200   12
111.8300   20
111.8400   13
111.8500   13
111.8600   9
111.8700   14
111.8800   15
111.8900   15
111.9000   9
111.9100   10
111.9200   15
111.9300   17
111.9400   18
111.9500   14
111.9600   10
111.9700   14
111.9800   16
111.9900   14
112.0000   19
112.0100   8
112.0200   9
112.0300   15
112.0400   15
112.0500   17
112.0600   13
112.0700   10
112.0800   13
112.0900   19
112.1000   5
112.1100   12
112.1200   12
112.1300   14
112.1400   16
112.1500   12
112.1600   16
112.1700   10
112.1800   10
112.1900   11
112.2000   14
112.2100   18
112.2200   20
112.2300   16
112.2400   15
112.2500   11
112.2600   11
112.2700   11
112.2800   15
112.2900   19
112.3000   16
112.3100   22
112.3200   8
112.3300   9
112.3400   11
112.3500   13
112.3600   12
112.3700   17
112.3800   13
112.3900   9
112.4000   13
112.4100   12
112.4200   12
112.4300   7
112.4400   10
112.4500   15
112.4600   15
112.4700   10
112.4800   10
112.4900   13
112.5000   10
112.5100   13
112.5200   12
112.5300   14
112.5400   10
112.5500   15
112.5600   13
112.5700   18
112.5800   9
112.5900   17
112.6000   16
112.6100   13
112.6200   11
112.6300   16
112.6400   12
112.6500   14
112.6600   14
112.6700   20
112.6800   16
112.6900   9
112.7000   10
112.7100   15
112.7200   7
112.7300   10
112.7400   14
112.7500   12
112.7600   11
112.7700   14
112.7800   13
112.7900   11
112.8000   14
112.8100   11
112.8200   13
112.8300   12
112.8400   13
112.8500   6
112.8600   13
112.8700   17
112.8800   25
112.8900   12
112.9000   12
112.9100   15
112.9200   18
112.9300   14
112.9400   10
112.9500   12
112.9600   18
112.9700   19
112.9800   11
112.9900   16
113.0000   15
113.0100   19
113.0200   13
113.0300   14
113.0400   13
113.0500   13
113.0600   14
113.0700   9
113.0800   12
113.0900   12
113.1000   11
113.1100   11
113.1200   12
113.1300   4
113.1400   15
113.1500   9
113.1600   11
113.1700   6
113.1800   16
113.1900   15
113.2000   12
113.2100   11
113.2200   14
113.2300   11
113.2400   12
113.2500   17
113.2600   11
113.2700   9
113.2800   12
113.2900   18
113.3000   8
113.3100   12
113.3200   11
113.3300   12
113.3400   16
113.3500   16
113.3600   18
113.3700   16
113.3800   16
113.3900   17
113.4000   16
113.4100   4
113.4200   5
113.4300   6
113.4400   13
113.4500   11
113.4600   15
113.4700   16
113.4800   13
113.4900   11
113.5000   16
113.5100   16
113.5200   19
113.5300   14
113.5400   13
113.5500   11
113.5600   12
113.5700   10
113.5800   9
113.5900   11
113.6000   15
113.6100   15
113.6200   15
113.6300   9
113.6400   12
113.6500   6
113.6600   17
113.6700   13
113.6800   15
113.6900   14
113.7000   10
113.7100   9
113.7200   13
113.7300   18
113.7400   8
113.7500   8
113.7600   15
113.7700   18
113.7800   13
113.7900   14
113.8000   18
113.8100   12
113.8200   11
113.8300   15
113.8400   21
113.8500   22
113.8600   13
113.8700   11
113.8800   12
113.8900   7
113.9000   10
113.9100   16
113.9200   10
113.9300   8
113.9400   9
113.9500   16
113.9600   13
113.9700   9
113.9800   12
113.9900   14
114.0000   15
114.0100   17
114.0200   18
114.0300   15
114.0400   14
114.0500   16
114.0600   22
114.0700   11
114.0800   10
114.0900   8
114.1000   21
114.1100   12
114.1200   13
114.1300   17
114.1400   14
114.1500   18
114.1600   21
114.1700   18
114.1800   18
114.1900   15
114.2000   20
114.2100   15
114.2200   20
114.2300   26
114.2400   19
114.2500   26
114.2600   11
114.2700   16
114.2800   15
114.2900   17
114.3000   14
114.3100   7
114.3200   16
114.3300   16
114.3400   20
114.3500   19
114.3600   23
114.3700   24
114.3800   15
114.3900   7
114.4000   18
114.4100   22
114.4200   21
114.4300   21
114.4400   15
114.4500   15
114.4600   21
114.4700   19
114.4800   20
114.4900   25
114.5000   17
114.5100   14
114.5200   19
114.5300   21
114.5400   14
114.5500   21
114.5600   19
114.5700   24
114.5800   24
114.5900   21
114.6000   19
114.6100   19
114.6200   15
114.6300   16
114.6400   11
114.6500   12
114.6600   17
114.6700   20
114.6800   17
114.6900   17
114.7000   6
114.7100   14
114.7200   17
114.7300   16
114.7400   17
114.7500   18
114.7600   14
114.7700   12
114.7800   15
114.7900   19
114.8000   20
114.8100   22
114.8200   14
114.8300   16
114.8400   16
114.8500   14
114.8600   15
114.8700   17
114.8800   16
114.8900   17
114.9000   23
114.9100   18
114.9200   16
114.9300   19
114.9400   26
114.9500   21
114.9600   8
114.9700   19
114.9800   14
114.9900   17
115.0000   19
115.0100   18
115.0200   19
115.0300   10
115.0400   10
115.0500   12
115.0600   14
115.0700   9
115.0800   16
115.0900   16
115.1000   7
115.1100   12
115.1200   8
115.1300   11
115.1400   8
115.1500   10
115.1600   14
115.1700   15
115.1800   17
115.1900   11
115.2000   11
115.2100   15
115.2200   15
115.2300   11
115.2400   19
115.2500   12
115.2600   17
115.2700   10
115.2800   13
115.2900   11
115.3000   6
115.3100   9
115.3200   11
115.3300   15
115.3400   12
115.3500   15
115.3600   12
115.3700   5
115.3800   13
115.3900   14
115.4000   9
115.4100   10
115.4200   10
115.4300   15
115.4400   6
115.4500   17
115.4600   15
115.4700   15
115.4800   7
115.4900   12
115.5000   8
115.5100   10
115.5200   14
115.5300   17
115.5400   8
115.5500   12
115.5600   14
115.5700   19
115.5800   16
115.5900   13
115.6000   7
115.6100   12
115.6200   11
115.6300   12
115.6400   12
115.6500   16
115.6600   10
115.6700   10
115.6800   7
115.6900   9
115.7000   16
115.7100   14
115.7200   16
115.7300   9
115.7400   11
115.7500   15
115.7600   16
115.7700   15
115.7800   8
115.7900   9
115.8000   7
115.8100   10
115.8200   8
115.8300   9
115.8400   13
115.8500   13
115.8600   9
115.8700   11
115.8800   12
115.8900   10
115.9000   13
115.9100   16
115.9200   14
115.9300   17
115.9400   14
115.9500   10
115.9600   11
115.9700   15
115.9800   20
115.9900   11
116.0000   6
116.0100   7
116.0200   10
116.0300   9
116.0400   15
116.0500   11
116.0600   15
116.0700   8
116.0800   23
116.0900   12
116.1000   18
116.1100   10
116.1200   9
116.1300   9
116.1400   10
116.1500   11
116.1600   15
116.1700   18
116.1800   15
116.1900   11
116.2000   13
116.2100   14
116.2200   19
116.2300   11
116.2400   28
116.2500   14
116.2600   17
116.2700   10
116.2800   12
116.2900   18
116.3000   13
116.3100   16
116.3200   17
116.3300   9
116.3400   12
116.3500   9
116.3600   10
116.3700   14
116.3800   17
116.3900   14
116.4000   13
116.4100   7
116.4200   17
116.4300   17
116.4400   13
116.4500   11
116.4600   14
116.4700   9
116.4800   10
116.4900   12
116.5000   11
116.5100   14
116.5200   7
116.5300   8
116.5400   15
116.5500   18
116.5600   14
116.5700   19
116.5800   14
116.5900   10
116.6000   14
116.6100   17
116.6200   14
116.6300   14
116.6400   15
116.6500   17
116.6600   16
116.6700   12
116.6800   11
116.6900   9
116.7000   13
116.7100   12
116.7200   15
116.7300   19
116.7400   14
116.7500   6
116.7600   7
116.7700   7
116.7800   12
116.7900   9
116.8000   8
116.8100   12
116.8200   17
116.8300   8
116.8400   13
116.8500   19
116.8600   13
116.8700   12
116.8800   12
116.8900   13
116.9000   18
116.9100   17
116.9200   11
116.9300   13
116.9400   11
116.9500   16
116.9600   11
116.9700   9
116.9800   13
116.9900   7
117.0000   13
117.0100   10
117.0200   12
117.0300   13
117.0400   12
117.0500   16
117.0600   21
117.0700   11
117.0800   12
117.0900   17
117.1000   14
117.1100   14
117.1200   15
117.1300   15
117.1400   8
117.1500   13
117.1600   14
117.1700   20
117.1800   15
117.1900   11
117.2000   16
117.2100   21
117.2200   13
117.2300   17
117.2400   19
117.2500   20
117.2600   8
117.2700   12
117.2800   12
117.2900   11
117.3000   15
117.3100   10
117.3200   6
117.3300   24
117.3400   11
117.3500   10
117.3600   11
117.3700   14
117.3800   20
117.3900   18
117.4000   11
117.4100   11
117.4200   10
117.4300   10
117.4400   11
117.4500   20
117.4600   12
117.4700   15
117.4800   16
117.4900   18
117.5000   8
117.5100   12
117.5200   15
117.5300   13
117.5400   15
117.5500   16
117.5600   18
117.5700   16
117.5800   8
117.5900   22
117.6000   21
117.6100   7
117.6200   10
117.6300   6
117.6400   22
117.6500   16
117.6600   19
117.6700   11
117.6800   13
117.6900   10
117.7000   10
117.7100   15
117.7200   18
117.7300   15
117.7400   15
117.7500   11
117.7600   13
117.7700   16
117.7800   21
117.7900   22
117.8000   24
117.8100   12
117.8200   12
117.8300   13
117.8400   18
117.8500   13
117.8600   12
117.8700   9
117.8800   13
117.8900   10
117.9000   14
117.9100   13
117.9200   9
117.9300   12
117.9400   12
117.9500   12
117.9600   8
117.9700   14
117.9800   14
117.9900   16
118.0000   11
118.0100   15
118.0200   18
118.0300   14
118.0400   20
118.0500   18
118.0600   12
118.0700   13
118.0800   18
118.0900   11
118.1000   16
118.1100   15
118.1200   9
118.1300   13
118.1400   19
118.1500   24
118.1600   24
118.1700   25
118.1800   15
118.1900   18
118.2000   9
118.2100   18
118.2200   16
118.2300   21
118.2400   21
118.2500   12
118.2600   16
118.2700   13
118.2800   19
118.2900   27
118.3000   30
118.3100   14
118.3200   16
118.3300   21
118.3400   15
118.3500   21
118.3600   13
118.3700   15
118.3800   18
118.3900   23
118.4000   17
118.4100   16
118.4200   17
118.4300   22
118.4400   22
118.4500   17
118.4600   20
118.4700   25
118.4800   20
118.4900   15
118.5000   18
118.5100   24
118.5200   29
118.5300   27
118.5400   24
118.5500   31
118.5600   29
118.5700   25
118.5800   36
118.5900   42
118.6000   49
118.6100   31
118.6200   44
118.6300   59
118.6400   55
118.6500   48
118.6600   60
118.6700   67
118.6800   51
118.6900   64
118.7000   52
118.7100   49
118.7200   49
118.7300   38
118.7400   36
118.7500   30
118.7600   36
118.7700   33
118.7800   24
118.7900   29
118.8000   36
118.8100   21
118.8200   18
118.8300   27
118.8400   23
118.8500   18
118.8600   23
118.8700   16
118.8800   17
118.8900   9
118.9000   14
118.9100   16
118.9200   22
118.9300   26
118.9400   23
118.9500   12
118.9600   17
118.9700   23
118.9800   26
118.9900   20
119.0000   22
119.0100   21
119.0200   18
119.0300   26
119.0400   28
119.0500   29
119.0600   20
119.0700   25
119.0800   28
119.0900   34
119.1000   27
119.1100   25
119.1200   33
119.1300   34
119.1400   37
119.1500   30
119.1600   32
119.1700   32
119.1800   25
119.1900   25
119.2000   27
119.2100   28
119.2200   38
119.2300   31
119.2400   25
119.2500   25
119.2600   24
119.2700   17
119.2800   20
119.2900   20
119.3000   20
119.3100   19
119.3200   21
119.3300   26
119.3400   18
119.3500   17
119.3600   13
119.3700   13
119.3800   17
119.3900   15
119.4000   15
119.4100   21
119.4200   15
119.4300   14
119.4400   18
119.4500   9
119.4600   8
119.4700   9
119.4800   13
119.4900   11
119.5000   18
119.5100   13
119.5200   15
119.5300   14
119.5400   15
119.5500   12
119.5600   14
119.5700   17
119.5800   20
119.5900   21
119.6000   19
119.6100   16
119.6200   24
119.6300   14
119.6400   9
119.6500   11
119.6600   12
119.6700   16
119.6800   15
119.6900   14
119.7000   14
119.7100   18
119.7200   20
119.7300   17
119.7400   13
119.7500   14
119.7600   7
119.7700   6
119.7800   18
119.7900   16
119.8000   17
119.8100   11
119.8200   13
119.8300   14
119.8400   17
119.8500   6
119.8600   16
119.8700   16
119.8800   12
119.8900   731
119.9000   11
119.9100   16
119.9200   14
119.9300   16
119.9400   14
119.9500   12
119.9600   12
119.9700   15
119.9800   15
119.9900   14
